:Data_list: 20010819_ace_sis_5m.txt
:Created: 2001 Aug 20 0011 UT
# Prepared by the U.S. Dept. of Commerce, NOAA, Space Environment Center.
# Please send comments and suggestions to sec@sec.noaa.gov 
# 
# Units: proton flux p/cs2-sec-ster
# Status(S): 0 = nominal data, 1 to 8 = bad data record, 9 = no data
# Missing data values: -1.00e+05
# Source: ACE Satellite - Solar Isotope Spectrometer
#
# 5-minute averaged Real-time Integral Flux of High-energy Solar Protons
# 
#                 Modified Seconds
# UT Date   Time   Julian  of the      ---- Integral Proton Flux ----
# YR MO DA  HHMM     Day     Day       S    > 10 MeV    S    > 30 MeV
#--------------------------------------------------------------------
2001 08 19  0000    52140       0      0    1.10e+01    0    4.20e+00
2001 08 19  0005    52140     300      0    1.08e+01    0    4.06e+00
2001 08 19  0010    52140     600      0    1.05e+01    0    3.96e+00
2001 08 19  0015    52140     900      0    1.06e+01    0    4.06e+00
2001 08 19  0020    52140    1200      0    1.07e+01    0    4.12e+00
2001 08 19  0025    52140    1500      0    1.07e+01    0    3.99e+00
2001 08 19  0030    52140    1800      0    1.03e+01    0    3.93e+00
2001 08 19  0035    52140    2100      0    1.03e+01    0    3.88e+00
2001 08 19  0040    52140    2400      0    1.06e+01    0    4.04e+00
2001 08 19  0045    52140    2700      0    1.08e+01    0    4.06e+00
2001 08 19  0050    52140    3000      0    1.06e+01    0    3.94e+00
2001 08 19  0055    52140    3300      0    1.04e+01    0    3.97e+00
2001 08 19  0100    52140    3600      0    1.02e+01    0    3.86e+00
2001 08 19  0105    52140    3900      0    1.07e+01    0    4.08e+00
2001 08 19  0110    52140    4200      0    1.10e+01    0    4.12e+00
2001 08 19  0115    52140    4500      0    1.09e+01    0    4.13e+00
2001 08 19  0120    52140    4800      0    1.09e+01    0    4.13e+00
2001 08 19  0125    52140    5100      0    1.10e+01    0    4.13e+00
2001 08 19  0130    52140    5400      0    1.07e+01    0    4.04e+00
2001 08 19  0135    52140    5700      0    1.05e+01    0    3.94e+00
2001 08 19  0140    52140    6000      0    1.05e+01    0    3.99e+00
2001 08 19  0145    52140    6300      0    1.02e+01    0    3.85e+00
2001 08 19  0150    52140    6600      0    1.01e+01    0    3.85e+00
2001 08 19  0155    52140    6900      0    9.94e+00    0    3.77e+00
2001 08 19  0200    52140    7200      0    9.79e+00    0    3.63e+00
2001 08 19  0205    52140    7500      0    9.88e+00    0    3.69e+00
2001 08 19  0210    52140    7800      0    1.01e+01    0    3.72e+00
2001 08 19  0215    52140    8100      0    9.96e+00    0    3.78e+00
2001 08 19  0220    52140    8400      0    1.00e+01    0    3.78e+00
2001 08 19  0225    52140    8700      0    1.00e+01    0    3.72e+00
2001 08 19  0230    52140    9000      0    9.66e+00    0    3.58e+00
2001 08 19  0235    52140    9300      0    9.67e+00    0    3.62e+00
2001 08 19  0240    52140    9600      0    9.55e+00    0    3.57e+00
2001 08 19  0245    52140    9900      0    9.56e+00    0    3.54e+00
2001 08 19  0250    52140   10200      0    9.75e+00    0    3.64e+00
2001 08 19  0255    52140   10500      0    9.36e+00    0    3.43e+00
2001 08 19  0300    52140   10800      0    9.33e+00    0    3.48e+00
2001 08 19  0305    52140   11100      0    9.32e+00    0    3.48e+00
2001 08 19  0310    52140   11400      0    9.42e+00    0    3.50e+00
2001 08 19  0315    52140   11700      0    9.30e+00    0    3.44e+00
2001 08 19  0320    52140   12000      0    9.57e+00    0    3.61e+00
2001 08 19  0325    52140   12300      0    9.47e+00    0    3.55e+00
2001 08 19  0330    52140   12600      0    9.32e+00    0    3.48e+00
2001 08 19  0335    52140   12900      0    9.43e+00    0    3.50e+00
2001 08 19  0340    52140   13200      0    9.60e+00    0    3.58e+00
2001 08 19  0345    52140   13500      0    9.60e+00    0    3.58e+00
2001 08 19  0350    52140   13800      0    9.45e+00    0    3.54e+00
2001 08 19  0355    52140   14100      0    9.50e+00    0    3.59e+00
2001 08 19  0400    52140   14400      0    9.45e+00    0    3.55e+00
2001 08 19  0405    52140   14700      0    9.55e+00    0    3.64e+00
2001 08 19  0410    52140   15000      0    9.41e+00    0    3.55e+00
2001 08 19  0415    52140   15300      0    9.56e+00    0    3.58e+00
2001 08 19  0420    52140   15600      0    9.35e+00    0    3.57e+00
2001 08 19  0425    52140   15900      0    9.14e+00    0    3.45e+00
2001 08 19  0430    52140   16200      0    9.16e+00    0    3.45e+00
2001 08 19  0435    52140   16500      0    9.06e+00    0    3.51e+00
2001 08 19  0440    52140   16800      0    8.96e+00    0    3.42e+00
2001 08 19  0445    52140   17100      0    9.07e+00    0    3.50e+00
2001 08 19  0450    52140   17400      0    9.11e+00    0    3.44e+00
2001 08 19  0455    52140   17700      0    8.87e+00    0    3.41e+00
2001 08 19  0500    52140   18000      0    9.06e+00    0    3.50e+00
2001 08 19  0505    52140   18300      0    8.60e+00    0    3.26e+00
2001 08 19  0510    52140   18600      0    8.78e+00    0    3.32e+00
2001 08 19  0515    52140   18900      0    8.89e+00    0    3.31e+00
2001 08 19  0520    52140   19200      0    8.79e+00    0    3.36e+00
2001 08 19  0525    52140   19500      0    8.85e+00    0    3.38e+00
2001 08 19  0530    52140   19800      0    8.86e+00    0    3.45e+00
2001 08 19  0535    52140   20100      0    8.94e+00    0    3.51e+00
2001 08 19  0540    52140   20400      0    9.02e+00    0    3.40e+00
2001 08 19  0545    52140   20700      0    8.72e+00    0    3.33e+00
2001 08 19  0550    52140   21000      0    8.70e+00    0    3.31e+00
2001 08 19  0555    52140   21300      0    8.96e+00    0    3.45e+00
2001 08 19  0600    52140   21600      0    8.91e+00    0    3.45e+00
2001 08 19  0605    52140   21900      0    8.68e+00    0    3.31e+00
2001 08 19  0610    52140   22200      0    8.62e+00    0    3.20e+00
2001 08 19  0615    52140   22500      0    8.48e+00    0    3.29e+00
2001 08 19  0620    52140   22800      0    8.73e+00    0    3.36e+00
2001 08 19  0625    52140   23100      0    8.81e+00    0    3.37e+00
2001 08 19  0630    52140   23400      0    8.57e+00    0    3.30e+00
2001 08 19  0635    52140   23700      0    8.51e+00    0    3.27e+00
2001 08 19  0640    52140   24000      0    8.42e+00    0    3.23e+00
2001 08 19  0645    52140   24300      0    8.58e+00    0    3.29e+00
2001 08 19  0650    52140   24600      0    8.52e+00    0    3.29e+00
2001 08 19  0655    52140   24900      0    8.74e+00    0    3.39e+00
2001 08 19  0700    52140   25200      0    8.65e+00    0    3.28e+00
2001 08 19  0705    52140   25500      0    8.59e+00    0    3.27e+00
2001 08 19  0710    52140   25800      0    8.63e+00    0    3.27e+00
2001 08 19  0715    52140   26100      0    8.63e+00    0    3.27e+00
2001 08 19  0720    52140   26400      0    8.56e+00    0    3.27e+00
2001 08 19  0725    52140   26700      0    8.58e+00    0    3.29e+00
2001 08 19  0730    52140   27000      0    8.52e+00    0    3.28e+00
2001 08 19  0735    52140   27300      0    8.56e+00    0    3.28e+00
2001 08 19  0740    52140   27600      0    8.51e+00    0    3.29e+00
2001 08 19  0745    52140   27900      0    8.39e+00    0    3.25e+00
2001 08 19  0750    52140   28200      0    8.46e+00    0    3.30e+00
2001 08 19  0755    52140   28500      0    8.38e+00    0    3.25e+00
2001 08 19  0800    52140   28800      0    8.42e+00    0    3.23e+00
2001 08 19  0805    52140   29100      0    8.58e+00    0    3.23e+00
2001 08 19  0810    52140   29400      0    8.62e+00    0    3.30e+00
2001 08 19  0815    52140   29700      0    8.61e+00    0    3.28e+00
2001 08 19  0820    52140   30000      0    8.07e+00    0    3.08e+00
2001 08 19  0825    52140   30300      0    8.19e+00    0    3.09e+00
2001 08 19  0830    52140   30600      0    8.17e+00    0    2.98e+00
2001 08 19  0835    52140   30900      0    8.11e+00    0    3.01e+00
2001 08 19  0840    52140   31200      0    8.22e+00    0    3.03e+00
2001 08 19  0845    52140   31500      0    8.06e+00    0    2.94e+00
2001 08 19  0850    52140   31800      0    7.99e+00    0    2.90e+00
2001 08 19  0855    52140   32100      0    8.10e+00    0    2.97e+00
2001 08 19  0900    52140   32400      0    7.99e+00    0    2.86e+00
2001 08 19  0905    52140   32700      0    8.02e+00    0    2.91e+00
2001 08 19  0910    52140   33000      0    8.02e+00    0    2.91e+00
2001 08 19  0915    52140   33300      0    7.96e+00    0    2.88e+00
2001 08 19  0920    52140   33600      0    7.74e+00    0    2.78e+00
2001 08 19  0925    52140   33900      0    7.77e+00    0    2.80e+00
2001 08 19  0930    52140   34200      0    7.94e+00    0    2.92e+00
2001 08 19  0935    52140   34500      0    7.79e+00    0    2.80e+00
2001 08 19  0940    52140   34800      0    7.81e+00    0    2.80e+00
2001 08 19  0945    52140   35100      0    7.87e+00    0    2.83e+00
2001 08 19  0950    52140   35400      0    7.78e+00    0    2.80e+00
2001 08 19  0955    52140   35700      0    7.85e+00    0    2.87e+00
2001 08 19  1000    52140   36000      0    8.10e+00    0    2.95e+00
2001 08 19  1005    52140   36300      0    8.19e+00    0    2.93e+00
2001 08 19  1010    52140   36600      0    7.81e+00    0    2.83e+00
2001 08 19  1015    52140   36900      0    7.78e+00    0    2.85e+00
2001 08 19  1020    52140   37200      0    7.86e+00    0    2.84e+00
2001 08 19  1025    52140   37500      0    7.78e+00    0    2.78e+00
2001 08 19  1030    52140   37800      0    7.82e+00    0    2.82e+00
2001 08 19  1035    52140   38100      0    7.65e+00    0    2.77e+00
2001 08 19  1040    52140   38400      0    7.67e+00    0    2.77e+00
2001 08 19  1045    52140   38700      0    7.66e+00    0    2.77e+00
2001 08 19  1050    52140   39000      0    7.58e+00    0    2.78e+00
2001 08 19  1055    52140   39300      0    7.64e+00    0    2.78e+00
2001 08 19  1100    52140   39600      0    7.64e+00    0    2.82e+00
2001 08 19  1105    52140   39900      0    7.68e+00    0    2.80e+00
2001 08 19  1110    52140   40200      0    7.69e+00    0    2.77e+00
2001 08 19  1115    52140   40500      0    7.79e+00    0    2.79e+00
2001 08 19  1120    52140   40800      0    7.69e+00    0    2.80e+00
2001 08 19  1125    52140   41100      0    7.60e+00    0    2.75e+00
2001 08 19  1130    52140   41400      0    7.33e+00    0    2.70e+00
2001 08 19  1135    52140   41700      0    7.92e+00    0    2.91e+00
2001 08 19  1140    52140   42000      0    8.12e+00    0    2.95e+00
2001 08 19  1145    52140   42300      0    7.66e+00    0    2.81e+00
2001 08 19  1150    52140   42600      0    7.62e+00    0    2.80e+00
2001 08 19  1155    52140   42900      0    7.61e+00    0    2.79e+00
2001 08 19  1200    52140   43200      0    8.03e+00    0    2.89e+00
2001 08 19  1205    52140   43500      0    8.18e+00    0    2.96e+00
2001 08 19  1210    52140   43800      0    7.72e+00    0    2.76e+00
2001 08 19  1215    52140   44100      0    7.76e+00    0    2.83e+00
2001 08 19  1220    52140   44400      0    7.67e+00    0    2.81e+00
2001 08 19  1225    52140   44700      0    8.04e+00    0    2.89e+00
2001 08 19  1230    52140   45000      0    8.14e+00    0    2.89e+00
2001 08 19  1235    52140   45300      0    7.80e+00    0    2.79e+00
2001 08 19  1240    52140   45600      0    7.63e+00    0    2.70e+00
2001 08 19  1245    52140   45900      0    7.61e+00    0    2.70e+00
2001 08 19  1250    52140   46200      0    7.70e+00    0    2.76e+00
2001 08 19  1255    52140   46500      0    7.68e+00    0    2.74e+00
2001 08 19  1300    52140   46800      0    7.70e+00    0    2.83e+00
2001 08 19  1305    52140   47100      0    7.52e+00    0    2.76e+00
2001 08 19  1310    52140   47400      0    7.54e+00    0    2.85e+00
2001 08 19  1315    52140   47700      0    7.44e+00    0    2.82e+00
2001 08 19  1320    52140   48000      0    7.49e+00    0    2.84e+00
2001 08 19  1325    52140   48300      0    7.48e+00    0    2.79e+00
2001 08 19  1330    52140   48600      0    7.43e+00    0    2.77e+00
2001 08 19  1335    52140   48900      0    7.61e+00    0    2.92e+00
2001 08 19  1340    52140   49200      0    7.57e+00    0    2.87e+00
2001 08 19  1345    52140   49500      0    7.61e+00    0    2.87e+00
2001 08 19  1350    52140   49800      0    7.76e+00    0    2.89e+00
2001 08 19  1355    52140   50100      0    7.58e+00    0    2.84e+00
2001 08 19  1400    52140   50400      0    7.90e+00    0    2.98e+00
2001 08 19  1405    52140   50700      0    8.14e+00    0    3.07e+00
2001 08 19  1410    52140   51000      0    7.55e+00    0    2.82e+00
2001 08 19  1415    52140   51300      0    7.52e+00    0    2.84e+00
2001 08 19  1420    52140   51600      0    8.47e+00    0    3.18e+00
2001 08 19  1425    52140   51900      0    7.84e+00    0    2.95e+00
2001 08 19  1430    52140   52200      0    7.49e+00    0    2.80e+00
2001 08 19  1435    52140   52500      0    7.58e+00    0    2.83e+00
2001 08 19  1440    52140   52800      0    7.43e+00    0    2.74e+00
2001 08 19  1445    52140   53100      0    7.38e+00    0    2.82e+00
2001 08 19  1450    52140   53400      0    7.13e+00    0    2.70e+00
2001 08 19  1455    52140   53700      0    7.62e+00    0    2.86e+00
2001 08 19  1500    52140   54000      0    7.21e+00    0    2.67e+00
2001 08 19  1505    52140   54300      0    7.01e+00    0    2.69e+00
2001 08 19  1510    52140   54600      0    7.12e+00    0    2.71e+00
2001 08 19  1515    52140   54900      0    7.10e+00    0    2.65e+00
2001 08 19  1520    52140   55200      0    7.17e+00    0    2.73e+00
2001 08 19  1525    52140   55500      0    7.55e+00    0    2.84e+00
2001 08 19  1530    52140   55800      0    8.38e+00    0    3.10e+00
2001 08 19  1535    52140   56100      0    7.74e+00    0    2.97e+00
2001 08 19  1540    52140   56400      0    7.73e+00    0    2.88e+00
2001 08 19  1545    52140   56700      0    7.31e+00    0    2.73e+00
2001 08 19  1550    52140   57000      0    7.33e+00    0    2.69e+00
2001 08 19  1555    52140   57300      0    7.65e+00    0    2.95e+00
2001 08 19  1600    52140   57600      0    7.64e+00    0    2.88e+00
2001 08 19  1605    52140   57900      0    7.09e+00    0    2.67e+00
2001 08 19  1610    52140   58200      0    7.37e+00    0    2.77e+00
2001 08 19  1615    52140   58500      0    7.40e+00    0    2.83e+00
2001 08 19  1620    52140   58800      0    7.39e+00    0    2.80e+00
2001 08 19  1625    52140   59100      0    7.37e+00    0    2.75e+00
2001 08 19  1630    52140   59400      0    7.35e+00    0    2.78e+00
2001 08 19  1635    52140   59700      0    7.34e+00    0    2.79e+00
2001 08 19  1640    52140   60000      0    7.47e+00    0    2.80e+00
2001 08 19  1645    52140   60300      0    7.99e+00    0    3.06e+00
2001 08 19  1650    52140   60600      0    7.70e+00    0    2.93e+00
2001 08 19  1655    52140   60900      0    7.35e+00    0    2.81e+00
2001 08 19  1700    52140   61200      0    7.50e+00    0    2.85e+00
2001 08 19  1705    52140   61500      0    7.65e+00    0    2.89e+00
2001 08 19  1710    52140   61800      0    7.23e+00    0    2.70e+00
2001 08 19  1715    52140   62100      0    7.51e+00    0    2.85e+00
2001 08 19  1720    52140   62400      0    7.64e+00    0    2.88e+00
2001 08 19  1725    52140   62700      0    7.57e+00    0    2.82e+00
2001 08 19  1730    52140   63000      0    7.39e+00    0    2.80e+00
2001 08 19  1735    52140   63300      0    7.42e+00    0    2.82e+00
2001 08 19  1740    52140   63600      0    7.41e+00    0    2.80e+00
2001 08 19  1745    52140   63900      0    7.22e+00    0    2.75e+00
2001 08 19  1750    52140   64200      0    7.14e+00    0    2.75e+00
2001 08 19  1755    52140   64500      0    7.10e+00    0    2.71e+00
2001 08 19  1800    52140   64800      0    7.16e+00    0    2.76e+00
2001 08 19  1805    52140   65100      0    7.18e+00    0    2.71e+00
2001 08 19  1810    52140   65400      0    7.59e+00    0    2.84e+00
2001 08 19  1815    52140   65700      0    7.26e+00    0    2.74e+00
2001 08 19  1820    52140   66000      0    7.32e+00    0    2.62e+00
2001 08 19  1825    52140   66300      0    7.38e+00    0    2.78e+00
2001 08 19  1830    52140   66600      0    7.33e+00    0    2.80e+00
2001 08 19  1835    52140   66900      0    7.20e+00    0    2.69e+00
2001 08 19  1840    52140   67200      0    7.30e+00    0    2.76e+00
2001 08 19  1845    52140   67500      0    7.52e+00    0    2.91e+00
2001 08 19  1850    52140   67800      0    7.13e+00    0    2.71e+00
2001 08 19  1855    52140   68100      0    7.06e+00    0    2.67e+00
2001 08 19  1900    52140   68400      0    7.23e+00    0    2.70e+00
2001 08 19  1905    52140   68700      0    7.52e+00    0    2.84e+00
2001 08 19  1910    52140   69000      0    8.08e+00    0    3.06e+00
2001 08 19  1915    52140   69300      0    7.64e+00    0    2.89e+00
2001 08 19  1920    52140   69600      0    7.32e+00    0    2.75e+00
2001 08 19  1925    52140   69900      0    7.24e+00    0    2.72e+00
2001 08 19  1930    52140   70200      0    7.37e+00    0    2.71e+00
2001 08 19  1935    52140   70500      0    7.35e+00    0    2.74e+00
2001 08 19  1940    52140   70800      0    7.43e+00    0    2.78e+00
2001 08 19  1945    52140   71100      0    7.40e+00    0    2.75e+00
2001 08 19  1950    52140   71400      0    7.40e+00    0    2.78e+00
2001 08 19  1955    52140   71700      0    7.38e+00    0    2.75e+00
2001 08 19  2000    52140   72000      0    7.33e+00    0    2.71e+00
2001 08 19  2005    52140   72300      0    7.34e+00    0    2.75e+00
2001 08 19  2010    52140   72600      0    7.44e+00    0    2.79e+00
2001 08 19  2015    52140   72900      0    7.31e+00    0    2.78e+00
2001 08 19  2020    52140   73200      0    7.13e+00    0    2.64e+00
2001 08 19  2025    52140   73500      0    7.12e+00    0    2.69e+00
2001 08 19  2030    52140   73800      0    7.21e+00    0    2.70e+00
2001 08 19  2035    52140   74100      0    7.48e+00    0    2.77e+00
2001 08 19  2040    52140   74400      0    7.35e+00    0    2.70e+00
2001 08 19  2045    52140   74700      0    7.17e+00    0    2.68e+00
2001 08 19  2050    52140   75000      0    7.29e+00    0    2.67e+00
2001 08 19  2055    52140   75300      0    7.33e+00    0    2.76e+00
2001 08 19  2100    52140   75600      0    7.20e+00    0    2.68e+00
2001 08 19  2105    52140   75900      0    7.13e+00    0    2.64e+00
2001 08 19  2110    52140   76200      0    7.07e+00    0    2.63e+00
2001 08 19  2115    52140   76500      0    7.07e+00    0    2.63e+00
2001 08 19  2120    52140   76800      0    7.22e+00    0    2.67e+00
2001 08 19  2125    52140   77100      0    7.05e+00    0    2.63e+00
2001 08 19  2130    52140   77400      0    7.27e+00    0    2.67e+00
2001 08 19  2135    52140   77700      0    7.24e+00    0    2.71e+00
2001 08 19  2140    52140   78000      0    7.13e+00    0    2.67e+00
2001 08 19  2145    52140   78300      0    7.28e+00    0    2.74e+00
2001 08 19  2150    52140   78600      0    7.17e+00    0    2.64e+00
2001 08 19  2155    52140   78900      0    7.23e+00    0    2.69e+00
2001 08 19  2200    52140   79200      0    7.05e+00    0    2.62e+00
2001 08 19  2205    52140   79500      0    7.06e+00    0    2.65e+00
2001 08 19  2210    52140   79800      0    7.08e+00    0    2.59e+00
2001 08 19  2215    52140   80100      0    7.07e+00    0    2.65e+00
2001 08 19  2220    52140   80400      0    7.06e+00    0    2.65e+00
2001 08 19  2225    52140   80700      0    6.99e+00    0    2.53e+00
2001 08 19  2230    52140   81000      0    7.02e+00    0    2.59e+00
2001 08 19  2235    52140   81300      0    6.87e+00    0    2.55e+00
2001 08 19  2240    52140   81600      0    7.19e+00    0    2.66e+00
2001 08 19  2245    52140   81900      0    7.03e+00    0    2.61e+00
2001 08 19  2250    52140   82200      0    7.26e+00    0    2.71e+00
2001 08 19  2255    52140   82500      0    7.26e+00    0    2.72e+00
2001 08 19  2300    52140   82800      0    6.89e+00    0    2.54e+00
2001 08 19  2305    52140   83100      0    6.91e+00    0    2.55e+00
2001 08 19  2310    52140   83400      0    7.00e+00    0    2.56e+00
2001 08 19  2315    52140   83700      0    7.00e+00    0    2.56e+00
2001 08 19  2320    52140   84000      0    6.86e+00    0    2.57e+00
2001 08 19  2325    52140   84300      0    6.97e+00    0    2.60e+00
2001 08 19  2330    52140   84600      0    6.93e+00    0    2.51e+00
2001 08 19  2335    52140   84900      0    6.96e+00    0    2.61e+00
2001 08 19  2340    52140   85200      0    6.84e+00    0    2.52e+00
2001 08 19  2345    52140   85500      0    6.48e+00    0    2.38e+00
2001 08 19  2350    52140   85800      0    6.83e+00    0    2.50e+00
2001 08 19  2355    52140   86100      0    6.82e+00    0    2.48e+00
