:Data_list: 20020427_ace_sis_5m.txt
:Created: 2002 Apr 28 0011 UT
# Prepared by the U.S. Dept. of Commerce, NOAA, Space Environment Center.
# Please send comments and suggestions to sec@sec.noaa.gov 
# 
# Units: proton flux p/cs2-sec-ster
# Status(S): 0 = nominal data, 1 to 8 = bad data record, 9 = no data
# Missing data values: -1.00e+05
# Source: ACE Satellite - Solar Isotope Spectrometer
#
# 5-minute averaged Real-time Integral Flux of High-energy Solar Protons
# 
#                 Modified Seconds
# UT Date   Time   Julian  of the      ---- Integral Proton Flux ----
# YR MO DA  HHMM     Day     Day       S    > 10 MeV    S    > 30 MeV
#--------------------------------------------------------------------
2002 04 27  0000    52391       0      0    6.12e+00    0    1.39e+00
2002 04 27  0005    52391     300      0    6.13e+00    0    1.36e+00
2002 04 27  0010    52391     600      0    6.00e+00    0    1.34e+00
2002 04 27  0015    52391     900      0    5.95e+00    0    1.38e+00
2002 04 27  0020    52391    1200      0    5.89e+00    0    1.31e+00
2002 04 27  0025    52391    1500      0    5.94e+00    0    1.34e+00
2002 04 27  0030    52391    1800      0    5.86e+00    0    1.31e+00
2002 04 27  0035    52391    2100      0    5.92e+00    0    1.34e+00
2002 04 27  0040    52391    2400      0    5.91e+00    0    1.31e+00
2002 04 27  0045    52391    2700      0    5.94e+00    0    1.35e+00
2002 04 27  0050    52391    3000      0    5.95e+00    0    1.34e+00
2002 04 27  0055    52391    3300      0    5.96e+00    0    1.36e+00
2002 04 27  0100    52391    3600      0    5.88e+00    0    1.31e+00
2002 04 27  0105    52391    3900      0    5.99e+00    0    1.36e+00
2002 04 27  0110    52391    4200      0    6.00e+00    0    1.29e+00
2002 04 27  0115    52391    4500      0    5.98e+00    0    1.37e+00
2002 04 27  0120    52391    4800      0    5.96e+00    0    1.34e+00
2002 04 27  0125    52391    5100      0    6.03e+00    0    1.38e+00
2002 04 27  0130    52391    5400      0    5.95e+00    0    1.34e+00
2002 04 27  0135    52391    5700      0    5.92e+00    0    1.30e+00
2002 04 27  0140    52391    6000      0    5.88e+00    0    1.29e+00
2002 04 27  0145    52391    6300      0    5.65e+00    0    1.29e+00
2002 04 27  0150    52391    6600      0    5.68e+00    0    1.27e+00
2002 04 27  0155    52391    6900      0    5.68e+00    0    1.30e+00
2002 04 27  0200    52391    7200      0    5.76e+00    0    1.32e+00
2002 04 27  0205    52391    7500      0    5.70e+00    0    1.30e+00
2002 04 27  0210    52391    7800      0    5.84e+00    0    1.36e+00
2002 04 27  0215    52391    8100      0    5.83e+00    0    1.33e+00
2002 04 27  0220    52391    8400      0    5.59e+00    0    1.28e+00
2002 04 27  0225    52391    8700      0    5.57e+00    0    1.24e+00
2002 04 27  0230    52391    9000      0    5.64e+00    0    1.28e+00
2002 04 27  0235    52391    9300      0    5.55e+00    0    1.27e+00
2002 04 27  0240    52391    9600      0    5.53e+00    0    1.28e+00
2002 04 27  0245    52391    9900      0    5.56e+00    0    1.28e+00
2002 04 27  0250    52391   10200      0    5.56e+00    0    1.25e+00
2002 04 27  0255    52391   10500      0    5.62e+00    0    1.28e+00
2002 04 27  0300    52391   10800      0    5.62e+00    0    1.32e+00
2002 04 27  0305    52391   11100      0    5.46e+00    0    1.26e+00
2002 04 27  0310    52391   11400      0    5.45e+00    0    1.24e+00
2002 04 27  0315    52391   11700      0    5.44e+00    0    1.26e+00
2002 04 27  0320    52391   12000      0    5.69e+00    0    1.28e+00
2002 04 27  0325    52391   12300      0    5.42e+00    0    1.28e+00
2002 04 27  0330    52391   12600      0    5.38e+00    0    1.24e+00
2002 04 27  0335    52391   12900      0    5.42e+00    0    1.30e+00
2002 04 27  0340    52391   13200      0    5.45e+00    0    1.24e+00
2002 04 27  0345    52391   13500      0    5.50e+00    0    1.27e+00
2002 04 27  0350    52391   13800      0    5.52e+00    0    1.30e+00
2002 04 27  0355    52391   14100      0    5.36e+00    0    1.25e+00
2002 04 27  0400    52391   14400      0    5.37e+00    0    1.28e+00
2002 04 27  0405    52391   14700      0    5.36e+00    0    1.25e+00
2002 04 27  0410    52391   15000      0    5.42e+00    0    1.27e+00
2002 04 27  0415    52391   15300      0    5.36e+00    0    1.24e+00
2002 04 27  0420    52391   15600      0    5.35e+00    0    1.29e+00
2002 04 27  0425    52391   15900      0    5.34e+00    0    1.26e+00
2002 04 27  0430    52391   16200      0    5.30e+00    0    1.23e+00
2002 04 27  0435    52391   16500      0    5.30e+00    0    1.23e+00
2002 04 27  0440    52391   16800      0    5.31e+00    0    1.25e+00
2002 04 27  0445    52391   17100      0    5.37e+00    0    1.25e+00
2002 04 27  0450    52391   17400      0    5.34e+00    0    1.24e+00
2002 04 27  0455    52391   17700      0    5.38e+00    0    1.25e+00
2002 04 27  0500    52391   18000      0    5.36e+00    0    1.25e+00
2002 04 27  0505    52391   18300      0    5.44e+00    0    1.26e+00
2002 04 27  0510    52391   18600      0    5.39e+00    0    1.22e+00
2002 04 27  0515    52391   18900      0    5.32e+00    0    1.24e+00
2002 04 27  0520    52391   19200      0    5.35e+00    0    1.26e+00
2002 04 27  0525    52391   19500      0    5.32e+00    0    1.22e+00
2002 04 27  0530    52391   19800      0    5.26e+00    0    1.23e+00
2002 04 27  0535    52391   20100      0    5.26e+00    0    1.24e+00
2002 04 27  0540    52391   20400      0    5.31e+00    0    1.24e+00
2002 04 27  0545    52391   20700      0    5.31e+00    0    1.27e+00
2002 04 27  0550    52391   21000      0    5.27e+00    0    1.25e+00
2002 04 27  0555    52391   21300      0    5.16e+00    0    1.23e+00
2002 04 27  0600    52391   21600      0    5.22e+00    0    1.25e+00
2002 04 27  0605    52391   21900      0    5.31e+00    0    1.26e+00
2002 04 27  0610    52391   22200      0    5.00e+00    0    1.19e+00
2002 04 27  0615    52391   22500      0    5.25e+00    0    1.25e+00
2002 04 27  0620    52391   22800      0    5.20e+00    0    1.24e+00
2002 04 27  0625    52391   23100      0    5.10e+00    0    1.22e+00
2002 04 27  0630    52391   23400      0    5.03e+00    0    1.17e+00
2002 04 27  0635    52391   23700      0    5.19e+00    0    1.24e+00
2002 04 27  0640    52391   24000      0    5.20e+00    0    1.22e+00
2002 04 27  0645    52391   24300      0    5.14e+00    0    1.23e+00
2002 04 27  0650    52391   24600      0    5.06e+00    0    1.21e+00
2002 04 27  0655    52391   24900      0    5.02e+00    0    1.16e+00
2002 04 27  0700    52391   25200      0    5.05e+00    0    1.16e+00
2002 04 27  0705    52391   25500      0    4.96e+00    0    1.19e+00
2002 04 27  0710    52391   25800      0    5.02e+00    0    1.20e+00
2002 04 27  0715    52391   26100      0    4.97e+00    0    1.18e+00
2002 04 27  0720    52391   26400      0    5.02e+00    0    1.21e+00
2002 04 27  0725    52391   26700      0    4.93e+00    0    1.19e+00
2002 04 27  0730    52391   27000      0    5.03e+00    0    1.23e+00
2002 04 27  0735    52391   27300      0    4.94e+00    0    1.12e+00
2002 04 27  0740    52391   27600      0    4.98e+00    0    1.20e+00
2002 04 27  0745    52391   27900      0    5.06e+00    0    1.22e+00
2002 04 27  0750    52391   28200      0    5.04e+00    0    1.21e+00
2002 04 27  0755    52391   28500      0    4.94e+00    0    1.21e+00
2002 04 27  0800    52391   28800      0    4.96e+00    0    1.17e+00
2002 04 27  0805    52391   29100      0    5.01e+00    0    1.17e+00
2002 04 27  0810    52391   29400      0    5.01e+00    0    1.18e+00
2002 04 27  0815    52391   29700      0    4.91e+00    0    1.18e+00
2002 04 27  0820    52391   30000      0    4.97e+00    0    1.22e+00
2002 04 27  0825    52391   30300      0    4.95e+00    0    1.20e+00
2002 04 27  0830    52391   30600      0    4.91e+00    0    1.16e+00
2002 04 27  0835    52391   30900      0    4.86e+00    0    1.16e+00
2002 04 27  0840    52391   31200      0    5.08e+00    0    1.20e+00
2002 04 27  0845    52391   31500      0    5.08e+00    0    1.20e+00
2002 04 27  0850    52391   31800      0    5.04e+00    0    1.21e+00
2002 04 27  0855    52391   32100      0    4.88e+00    0    1.17e+00
2002 04 27  0900    52391   32400      0    4.83e+00    0    1.13e+00
2002 04 27  0905    52391   32700      0    4.79e+00    0    1.12e+00
2002 04 27  0910    52391   33000      0    4.80e+00    0    1.13e+00
2002 04 27  0915    52391   33300      0    4.79e+00    0    1.17e+00
2002 04 27  0920    52391   33600      0    4.75e+00    0    1.15e+00
2002 04 27  0925    52391   33900      0    4.74e+00    0    1.14e+00
2002 04 27  0930    52391   34200      0    4.81e+00    0    1.12e+00
2002 04 27  0935    52391   34500      0    4.80e+00    0    1.16e+00
2002 04 27  0940    52391   34800      0    4.78e+00    0    1.13e+00
2002 04 27  0945    52391   35100      0    4.79e+00    0    1.14e+00
2002 04 27  0950    52391   35400      0    4.79e+00    0    1.14e+00
2002 04 27  0955    52391   35700      0    4.75e+00    0    1.15e+00
2002 04 27  1000    52391   36000      0    4.81e+00    0    1.14e+00
2002 04 27  1005    52391   36300      0    4.81e+00    0    1.17e+00
2002 04 27  1010    52391   36600      0    4.80e+00    0    1.16e+00
2002 04 27  1015    52391   36900      0    4.76e+00    0    1.15e+00
2002 04 27  1020    52391   37200      0    4.77e+00    0    1.13e+00
2002 04 27  1025    52391   37500      0    4.83e+00    0    1.17e+00
2002 04 27  1030    52391   37800      0    4.84e+00    0    1.19e+00
2002 04 27  1035    52391   38100      0    4.80e+00    0    1.16e+00
2002 04 27  1040    52391   38400      0    4.77e+00    0    1.12e+00
2002 04 27  1045    52391   38700      0    4.81e+00    0    1.12e+00
2002 04 27  1050    52391   39000      0    4.81e+00    0    1.15e+00
2002 04 27  1055    52391   39300      0    4.76e+00    0    1.17e+00
2002 04 27  1100    52391   39600      0    4.84e+00    0    1.16e+00
2002 04 27  1105    52391   39900      0    4.82e+00    0    1.15e+00
2002 04 27  1110    52391   40200      0    4.84e+00    0    1.14e+00
2002 04 27  1115    52391   40500      0    4.84e+00    0    1.15e+00
2002 04 27  1120    52391   40800      9   -1.00e+05    9   -1.00e+05
2002 04 27  1125    52391   41100      9   -1.00e+05    9   -1.00e+05
2002 04 27  1130    52391   41400      9   -1.00e+05    9   -1.00e+05
2002 04 27  1135    52391   41700      9   -1.00e+05    9   -1.00e+05
2002 04 27  1140    52391   42000      0    4.68e+00    0    1.11e+00
2002 04 27  1145    52391   42300      0    4.72e+00    0    1.14e+00
2002 04 27  1150    52391   42600      0    4.70e+00    0    1.16e+00
2002 04 27  1155    52391   42900      0    4.63e+00    0    1.09e+00
2002 04 27  1200    52391   43200      0    4.67e+00    0    1.15e+00
2002 04 27  1205    52391   43500      0    4.60e+00    0    1.10e+00
2002 04 27  1210    52391   43800      0    4.66e+00    0    1.12e+00
2002 04 27  1215    52391   44100      0    4.64e+00    0    1.08e+00
2002 04 27  1220    52391   44400      0    4.69e+00    0    1.12e+00
2002 04 27  1225    52391   44700      0    4.66e+00    0    1.13e+00
2002 04 27  1230    52391   45000      0    4.59e+00    0    1.10e+00
2002 04 27  1235    52391   45300      0    4.55e+00    0    1.10e+00
2002 04 27  1240    52391   45600      0    4.51e+00    0    1.09e+00
2002 04 27  1245    52391   45900      0    4.47e+00    0    1.12e+00
2002 04 27  1250    52391   46200      0    4.38e+00    0    1.08e+00
2002 04 27  1255    52391   46500      0    4.33e+00    0    1.07e+00
2002 04 27  1300    52391   46800      0    4.35e+00    0    1.06e+00
2002 04 27  1305    52391   47100      0    4.33e+00    0    1.09e+00
2002 04 27  1310    52391   47400      0    4.29e+00    0    1.05e+00
2002 04 27  1315    52391   47700      0    4.42e+00    0    1.10e+00
2002 04 27  1320    52391   48000      0    4.31e+00    0    1.09e+00
2002 04 27  1325    52391   48300      0    4.34e+00    0    1.09e+00
2002 04 27  1330    52391   48600      0    4.32e+00    0    1.09e+00
2002 04 27  1335    52391   48900      0    4.33e+00    0    1.11e+00
2002 04 27  1340    52391   49200      0    4.31e+00    0    1.09e+00
2002 04 27  1345    52391   49500      0    4.29e+00    0    1.09e+00
2002 04 27  1350    52391   49800      0    4.30e+00    0    1.10e+00
2002 04 27  1355    52391   50100      0    4.23e+00    0    1.05e+00
2002 04 27  1400    52391   50400      0    4.34e+00    0    1.12e+00
2002 04 27  1405    52391   50700      0    4.23e+00    0    1.07e+00
2002 04 27  1410    52391   51000      0    4.26e+00    0    1.07e+00
2002 04 27  1415    52391   51300      0    4.29e+00    0    1.06e+00
2002 04 27  1420    52391   51600      0    4.27e+00    0    1.06e+00
2002 04 27  1425    52391   51900      0    4.27e+00    0    1.09e+00
2002 04 27  1430    52391   52200      0    4.26e+00    0    1.05e+00
2002 04 27  1435    52391   52500      0    4.31e+00    0    1.07e+00
2002 04 27  1440    52391   52800      0    4.40e+00    0    1.10e+00
2002 04 27  1445    52391   53100      0    4.36e+00    0    1.09e+00
2002 04 27  1450    52391   53400      0    4.22e+00    0    1.05e+00
2002 04 27  1455    52391   53700      0    4.25e+00    0    1.07e+00
2002 04 27  1500    52391   54000      0    4.32e+00    0    1.06e+00
2002 04 27  1505    52391   54300      9   -1.00e+05    9   -1.00e+05
2002 04 27  1510    52391   54600      0    4.38e+00    0    1.09e+00
2002 04 27  1515    52391   54900      0    4.29e+00    0    1.07e+00
2002 04 27  1520    52391   55200      0    4.26e+00    0    1.06e+00
2002 04 27  1525    52391   55500      0    4.33e+00    0    1.09e+00
2002 04 27  1530    52391   55800      0    4.34e+00    0    1.07e+00
2002 04 27  1535    52391   56100      0    4.26e+00    0    1.05e+00
2002 04 27  1540    52391   56400      0    4.22e+00    0    1.08e+00
2002 04 27  1545    52391   56700      0    4.22e+00    0    1.10e+00
2002 04 27  1550    52391   57000      0    4.12e+00    0    1.03e+00
2002 04 27  1555    52391   57300      0    4.17e+00    0    1.08e+00
2002 04 27  1600    52391   57600      0    4.17e+00    0    1.06e+00
2002 04 27  1605    52391   57900      0    4.13e+00    0    1.03e+00
2002 04 27  1610    52391   58200      0    4.13e+00    0    1.04e+00
2002 04 27  1615    52391   58500      0    4.06e+00    0    1.03e+00
2002 04 27  1620    52391   58800      0    4.11e+00    0    1.03e+00
2002 04 27  1625    52391   59100      0    4.13e+00    0    1.05e+00
2002 04 27  1630    52391   59400      0    4.08e+00    0    1.06e+00
2002 04 27  1635    52391   59700      0    4.09e+00    0    1.06e+00
2002 04 27  1640    52391   60000      0    4.05e+00    0    1.04e+00
2002 04 27  1645    52391   60300      0    4.04e+00    0    1.05e+00
2002 04 27  1650    52391   60600      0    4.03e+00    0    1.05e+00
2002 04 27  1655    52391   60900      0    3.98e+00    0    1.01e+00
2002 04 27  1700    52391   61200      0    3.97e+00    0    1.03e+00
2002 04 27  1705    52391   61500      0    4.00e+00    0    1.04e+00
2002 04 27  1710    52391   61800      0    4.01e+00    0    1.04e+00
2002 04 27  1715    52391   62100      0    3.98e+00    0    1.04e+00
2002 04 27  1720    52391   62400      9   -1.00e+05    9   -1.00e+05
2002 04 27  1725    52391   62700      0    3.10e+00    0    8.23e-01
2002 04 27  1730    52391   63000      0    3.88e+00    0    1.04e+00
2002 04 27  1735    52391   63300      0    4.00e+00    0    1.06e+00
2002 04 27  1740    52391   63600      0    4.04e+00    0    1.09e+00
2002 04 27  1745    52391   63900      0    3.99e+00    0    1.04e+00
2002 04 27  1750    52391   64200      0    3.92e+00    0    9.92e-01
2002 04 27  1755    52391   64500      0    3.93e+00    0    1.00e+00
2002 04 27  1800    52391   64800      0    3.95e+00    0    1.03e+00
2002 04 27  1805    52391   65100      0    3.89e+00    0    1.03e+00
2002 04 27  1810    52391   65400      0    3.78e+00    0    1.01e+00
2002 04 27  1815    52391   65700      0    3.74e+00    0    1.01e+00
2002 04 27  1820    52391   66000      0    3.77e+00    0    9.97e-01
2002 04 27  1825    52391   66300      0    3.85e+00    0    1.02e+00
2002 04 27  1830    52391   66600      0    3.87e+00    0    1.00e+00
2002 04 27  1835    52391   66900      0    3.81e+00    0    9.98e-01
2002 04 27  1840    52391   67200      0    3.72e+00    0    1.00e+00
2002 04 27  1845    52391   67500      0    3.77e+00    0    9.80e-01
2002 04 27  1850    52391   67800      0    3.88e+00    0    1.05e+00
2002 04 27  1855    52391   68100      0    3.87e+00    0    1.07e+00
2002 04 27  1900    52391   68400      0    3.86e+00    0    1.02e+00
2002 04 27  1905    52391   68700      0    3.83e+00    0    1.03e+00
2002 04 27  1910    52391   69000      0    3.81e+00    0    1.00e+00
2002 04 27  1915    52391   69300      0    3.69e+00    0    9.99e-01
2002 04 27  1920    52391   69600      0    3.71e+00    0    1.01e+00
2002 04 27  1925    52391   69900      0    3.69e+00    0    9.91e-01
2002 04 27  1930    52391   70200      0    3.66e+00    0    9.93e-01
2002 04 27  1935    52391   70500      0    3.64e+00    0    1.01e+00
2002 04 27  1940    52391   70800      0    3.65e+00    0    9.93e-01
2002 04 27  1945    52391   71100      0    3.58e+00    0    9.80e-01
2002 04 27  1950    52391   71400      0    3.40e+00    0    9.63e-01
2002 04 27  1955    52391   71700      0    3.28e+00    0    9.56e-01
2002 04 27  2000    52391   72000      0    3.32e+00    0    9.93e-01
2002 04 27  2005    52391   72300      0    3.24e+00    0    9.54e-01
2002 04 27  2010    52391   72600      0    3.22e+00    0    9.30e-01
2002 04 27  2015    52391   72900      0    3.24e+00    0    9.79e-01
2002 04 27  2020    52391   73200      0    3.20e+00    0    9.25e-01
2002 04 27  2025    52391   73500      0    3.23e+00    0    9.55e-01
2002 04 27  2030    52391   73800      0    3.25e+00    0    9.70e-01
2002 04 27  2035    52391   74100      0    3.14e+00    0    9.16e-01
2002 04 27  2040    52391   74400      0    3.20e+00    0    9.62e-01
2002 04 27  2045    52391   74700      0    3.17e+00    0    9.58e-01
2002 04 27  2050    52391   75000      0    3.13e+00    0    9.39e-01
2002 04 27  2055    52391   75300      0    3.11e+00    0    9.23e-01
2002 04 27  2100    52391   75600      0    3.19e+00    0    9.46e-01
2002 04 27  2105    52391   75900      0    3.13e+00    0    9.38e-01
2002 04 27  2110    52391   76200      0    3.17e+00    0    9.33e-01
2002 04 27  2115    52391   76500      0    3.18e+00    0    9.33e-01
2002 04 27  2120    52391   76800      0    3.08e+00    0    9.27e-01
2002 04 27  2125    52391   77100      0    3.07e+00    0    9.02e-01
2002 04 27  2130    52391   77400      0    3.04e+00    0    9.21e-01
2002 04 27  2135    52391   77700      0    3.04e+00    0    9.07e-01
2002 04 27  2140    52391   78000      0    3.05e+00    0    9.26e-01
2002 04 27  2145    52391   78300      0    3.08e+00    0    9.80e-01
2002 04 27  2150    52391   78600      0    3.03e+00    0    9.24e-01
2002 04 27  2155    52391   78900      0    2.99e+00    0    9.30e-01
2002 04 27  2200    52391   79200      0    3.01e+00    0    9.24e-01
2002 04 27  2205    52391   79500      0    3.03e+00    0    9.29e-01
2002 04 27  2210    52391   79800      0    3.02e+00    0    9.41e-01
2002 04 27  2215    52391   80100      0    3.02e+00    0    9.21e-01
2002 04 27  2220    52391   80400      0    2.97e+00    0    9.05e-01
2002 04 27  2225    52391   80700      0    2.97e+00    0    9.10e-01
2002 04 27  2230    52391   81000      0    2.97e+00    0    9.03e-01
2002 04 27  2235    52391   81300      0    2.98e+00    0    9.04e-01
2002 04 27  2240    52391   81600      0    2.96e+00    0    9.28e-01
2002 04 27  2245    52391   81900      0    2.96e+00    0    9.02e-01
2002 04 27  2250    52391   82200      0    3.00e+00    0    9.14e-01
2002 04 27  2255    52391   82500      0    2.98e+00    0    9.17e-01
2002 04 27  2300    52391   82800      0    3.00e+00    0    9.19e-01
2002 04 27  2305    52391   83100      0    2.95e+00    0    9.11e-01
2002 04 27  2310    52391   83400      0    2.93e+00    0    8.92e-01
2002 04 27  2315    52391   83700      0    2.92e+00    0    9.14e-01
2002 04 27  2320    52391   84000      0    2.89e+00    0    9.14e-01
2002 04 27  2325    52391   84300      0    2.90e+00    0    9.18e-01
2002 04 27  2330    52391   84600      0    2.85e+00    0    8.97e-01
2002 04 27  2335    52391   84900      0    2.91e+00    0    9.09e-01
2002 04 27  2340    52391   85200      0    2.98e+00    0    9.40e-01
2002 04 27  2345    52391   85500      0    2.93e+00    0    9.16e-01
2002 04 27  2350    52391   85800      0    2.90e+00    0    9.00e-01
2002 04 27  2355    52391   86100      0    2.90e+00    0    8.98e-01
