:Data_list: 20021109_ace_sis_5m.txt
:Created: 2002 Nov 10 0011 UT
# Prepared by the U.S. Dept. of Commerce, NOAA, Space Environment Center.
# Please send comments and suggestions to sec@sec.noaa.gov 
# 
# Units: proton flux p/cs2-sec-ster
# Status(S): 0 = nominal data, 1 to 8 = bad data record, 9 = no data
# Missing data values: -1.00e+05
# Source: ACE Satellite - Solar Isotope Spectrometer
#
# 5-minute averaged Real-time Integral Flux of High-energy Solar Protons
# 
#                 Modified Seconds
# UT Date   Time   Julian  of the      ---- Integral Proton Flux ----
# YR MO DA  HHMM     Day     Day       S    > 10 MeV    S    > 30 MeV
#--------------------------------------------------------------------
2002 11 09  0000    52587       0      0    8.23e-01    0    5.73e-01
2002 11 09  0005    52587     300      0    8.28e-01    0    5.78e-01
2002 11 09  0010    52587     600      0    8.59e-01    0    6.02e-01
2002 11 09  0015    52587     900      0    8.25e-01    0    5.77e-01
2002 11 09  0020    52587    1200      0    8.49e-01    0    6.00e-01
2002 11 09  0025    52587    1500      0    8.21e-01    0    5.74e-01
2002 11 09  0030    52587    1800      0    7.86e-01    0    5.53e-01
2002 11 09  0035    52587    2100      0    8.28e-01    0    5.81e-01
2002 11 09  0040    52587    2400      0    8.28e-01    0    5.80e-01
2002 11 09  0045    52587    2700      0    8.29e-01    0    5.82e-01
2002 11 09  0050    52587    3000      0    8.46e-01    0    5.91e-01
2002 11 09  0055    52587    3300      0    8.36e-01    0    5.90e-01
2002 11 09  0100    52587    3600      0    8.10e-01    0    5.69e-01
2002 11 09  0105    52587    3900      0    8.37e-01    0    5.84e-01
2002 11 09  0110    52587    4200      0    8.36e-01    0    5.80e-01
2002 11 09  0115    52587    4500      0    8.26e-01    0    5.80e-01
2002 11 09  0120    52587    4800      0    8.31e-01    0    5.83e-01
2002 11 09  0125    52587    5100      0    8.09e-01    0    5.68e-01
2002 11 09  0130    52587    5400      0    8.23e-01    0    5.77e-01
2002 11 09  0135    52587    5700      0    8.30e-01    0    5.77e-01
2002 11 09  0140    52587    6000      0    8.20e-01    0    5.70e-01
2002 11 09  0145    52587    6300      0    8.12e-01    0    5.69e-01
2002 11 09  0150    52587    6600      0    8.21e-01    0    5.82e-01
2002 11 09  0155    52587    6900      0    8.32e-01    0    5.79e-01
2002 11 09  0200    52587    7200      0    8.20e-01    0    5.75e-01
2002 11 09  0205    52587    7500      0    8.17e-01    0    5.73e-01
2002 11 09  0210    52587    7800      0    8.32e-01    0    5.87e-01
2002 11 09  0215    52587    8100      0    8.24e-01    0    5.72e-01
2002 11 09  0220    52587    8400      0    8.36e-01    0    5.86e-01
2002 11 09  0225    52587    8700      0    8.31e-01    0    5.83e-01
2002 11 09  0230    52587    9000      0    8.13e-01    0    5.62e-01
2002 11 09  0235    52587    9300      0    8.57e-01    0    6.04e-01
2002 11 09  0240    52587    9600      0    8.34e-01    0    5.92e-01
2002 11 09  0245    52587    9900      0    8.41e-01    0    5.92e-01
2002 11 09  0250    52587   10200      0    8.41e-01    0    5.84e-01
2002 11 09  0255    52587   10500      0    7.93e-01    0    5.63e-01
2002 11 09  0300    52587   10800      0    8.43e-01    0    5.99e-01
2002 11 09  0305    52587   11100      0    8.49e-01    0    5.96e-01
2002 11 09  0310    52587   11400      0    8.08e-01    0    5.63e-01
2002 11 09  0315    52587   11700      0    8.44e-01    0    5.91e-01
2002 11 09  0320    52587   12000      0    8.27e-01    0    5.82e-01
2002 11 09  0325    52587   12300      0    8.46e-01    0    6.02e-01
2002 11 09  0330    52587   12600      0    8.32e-01    0    5.80e-01
2002 11 09  0335    52587   12900      0    8.45e-01    0    5.88e-01
2002 11 09  0340    52587   13200      0    8.24e-01    0    5.76e-01
2002 11 09  0345    52587   13500      0    8.35e-01    0    5.85e-01
2002 11 09  0350    52587   13800      0    8.34e-01    0    5.87e-01
2002 11 09  0355    52587   14100      0    8.16e-01    0    5.58e-01
2002 11 09  0400    52587   14400      0    8.43e-01    0    5.90e-01
2002 11 09  0405    52587   14700      0    8.51e-01    0    5.94e-01
2002 11 09  0410    52587   15000      0    8.22e-01    0    5.73e-01
2002 11 09  0415    52587   15300      0    8.40e-01    0    5.88e-01
2002 11 09  0420    52587   15600      0    8.37e-01    0    5.81e-01
2002 11 09  0425    52587   15900      0    8.27e-01    0    5.75e-01
2002 11 09  0430    52587   16200      0    8.31e-01    0    5.79e-01
2002 11 09  0435    52587   16500      0    8.36e-01    0    5.81e-01
2002 11 09  0440    52587   16800      0    8.32e-01    0    5.74e-01
2002 11 09  0445    52587   17100      0    8.42e-01    0    5.91e-01
2002 11 09  0450    52587   17400      0    8.20e-01    0    5.69e-01
2002 11 09  0455    52587   17700      0    8.29e-01    0    5.77e-01
2002 11 09  0500    52587   18000      0    8.39e-01    0    5.90e-01
2002 11 09  0505    52587   18300      0    8.37e-01    0    5.86e-01
2002 11 09  0510    52587   18600      0    8.24e-01    0    5.71e-01
2002 11 09  0515    52587   18900      0    8.17e-01    0    5.68e-01
2002 11 09  0520    52587   19200      0    8.31e-01    0    5.84e-01
2002 11 09  0525    52587   19500      0    8.34e-01    0    5.82e-01
2002 11 09  0530    52587   19800      0    8.21e-01    0    5.80e-01
2002 11 09  0535    52587   20100      0    8.14e-01    0    5.72e-01
2002 11 09  0540    52587   20400      0    8.22e-01    0    5.74e-01
2002 11 09  0545    52587   20700      0    8.65e-01    0    6.11e-01
2002 11 09  0550    52587   21000      0    8.28e-01    0    5.86e-01
2002 11 09  0555    52587   21300      0    8.20e-01    0    5.76e-01
2002 11 09  0600    52587   21600      0    8.43e-01    0    5.85e-01
2002 11 09  0605    52587   21900      0    8.23e-01    0    5.84e-01
2002 11 09  0610    52587   22200      0    8.32e-01    0    5.81e-01
2002 11 09  0615    52587   22500      0    8.40e-01    0    5.86e-01
2002 11 09  0620    52587   22800      0    8.49e-01    0    5.99e-01
2002 11 09  0625    52587   23100      0    8.17e-01    0    5.69e-01
2002 11 09  0630    52587   23400      0    8.28e-01    0    5.77e-01
2002 11 09  0635    52587   23700      0    8.33e-01    0    5.77e-01
2002 11 09  0640    52587   24000      0    8.18e-01    0    5.76e-01
2002 11 09  0645    52587   24300      0    8.18e-01    0    5.71e-01
2002 11 09  0650    52587   24600      0    8.24e-01    0    5.80e-01
2002 11 09  0655    52587   24900      0    8.34e-01    0    5.83e-01
2002 11 09  0700    52587   25200      0    8.17e-01    0    5.78e-01
2002 11 09  0705    52587   25500      0    8.26e-01    0    5.71e-01
2002 11 09  0710    52587   25800      0    8.27e-01    0    5.81e-01
2002 11 09  0715    52587   26100      0    8.21e-01    0    5.76e-01
2002 11 09  0720    52587   26400      0    8.34e-01    0    5.87e-01
2002 11 09  0725    52587   26700      0    8.36e-01    0    5.90e-01
2002 11 09  0730    52587   27000      0    8.21e-01    0    5.74e-01
2002 11 09  0735    52587   27300      0    8.41e-01    0    5.93e-01
2002 11 09  0740    52587   27600      0    8.31e-01    0    5.79e-01
2002 11 09  0745    52587   27900      0    8.29e-01    0    5.79e-01
2002 11 09  0750    52587   28200      0    8.36e-01    0    5.87e-01
2002 11 09  0755    52587   28500      0    8.22e-01    0    5.73e-01
2002 11 09  0800    52587   28800      0    8.23e-01    0    5.74e-01
2002 11 09  0805    52587   29100      0    8.39e-01    0    5.89e-01
2002 11 09  0810    52587   29400      0    8.47e-01    0    5.88e-01
2002 11 09  0815    52587   29700      0    8.33e-01    0    5.85e-01
2002 11 09  0820    52587   30000      0    8.32e-01    0    5.84e-01
2002 11 09  0825    52587   30300      0    8.31e-01    0    5.78e-01
2002 11 09  0830    52587   30600      0    8.28e-01    0    5.79e-01
2002 11 09  0835    52587   30900      0    8.35e-01    0    5.83e-01
2002 11 09  0840    52587   31200      0    8.11e-01    0    5.61e-01
2002 11 09  0845    52587   31500      0    8.30e-01    0    5.80e-01
2002 11 09  0850    52587   31800      0    8.57e-01    0    6.00e-01
2002 11 09  0855    52587   32100      0    8.35e-01    0    5.74e-01
2002 11 09  0900    52587   32400      0    8.29e-01    0    5.80e-01
2002 11 09  0905    52587   32700      0    8.41e-01    0    5.91e-01
2002 11 09  0910    52587   33000      0    8.30e-01    0    5.73e-01
2002 11 09  0915    52587   33300      0    8.42e-01    0    5.93e-01
2002 11 09  0920    52587   33600      0    8.44e-01    0    5.93e-01
2002 11 09  0925    52587   33900      0    8.30e-01    0    5.82e-01
2002 11 09  0930    52587   34200      0    8.42e-01    0    5.87e-01
2002 11 09  0935    52587   34500      0    8.57e-01    0    6.00e-01
2002 11 09  0940    52587   34800      0    8.30e-01    0    5.80e-01
2002 11 09  0945    52587   35100      0    8.30e-01    0    5.82e-01
2002 11 09  0950    52587   35400      0    8.33e-01    0    5.91e-01
2002 11 09  0955    52587   35700      0    8.58e-01    0    6.09e-01
2002 11 09  1000    52587   36000      0    8.43e-01    0    5.82e-01
2002 11 09  1005    52587   36300      0    8.24e-01    0    5.72e-01
2002 11 09  1010    52587   36600      0    8.53e-01    0    5.93e-01
2002 11 09  1015    52587   36900      0    8.26e-01    0    5.76e-01
2002 11 09  1020    52587   37200      0    8.37e-01    0    5.89e-01
2002 11 09  1025    52587   37500      0    8.49e-01    0    5.99e-01
2002 11 09  1030    52587   37800      0    8.24e-01    0    5.78e-01
2002 11 09  1035    52587   38100      0    8.36e-01    0    5.78e-01
2002 11 09  1040    52587   38400      0    8.42e-01    0    5.86e-01
2002 11 09  1045    52587   38700      0    8.34e-01    0    5.91e-01
2002 11 09  1050    52587   39000      0    8.27e-01    0    5.80e-01
2002 11 09  1055    52587   39300      0    8.08e-01    0    5.70e-01
2002 11 09  1100    52587   39600      0    8.33e-01    0    5.81e-01
2002 11 09  1105    52587   39900      0    8.44e-01    0    5.90e-01
2002 11 09  1110    52587   40200      0    8.16e-01    0    5.76e-01
2002 11 09  1115    52587   40500      0    8.32e-01    0    5.83e-01
2002 11 09  1120    52587   40800      0    8.41e-01    0    5.91e-01
2002 11 09  1125    52587   41100      0    8.14e-01    0    5.70e-01
2002 11 09  1130    52587   41400      0    8.39e-01    0    5.82e-01
2002 11 09  1135    52587   41700      0    8.46e-01    0    5.89e-01
2002 11 09  1140    52587   42000      0    8.17e-01    0    5.77e-01
2002 11 09  1145    52587   42300      0    8.33e-01    0    5.81e-01
2002 11 09  1150    52587   42600      0    8.04e-01    0    5.64e-01
2002 11 09  1155    52587   42900      0    8.23e-01    0    5.70e-01
2002 11 09  1200    52587   43200      0    8.21e-01    0    5.76e-01
2002 11 09  1205    52587   43500      0    8.29e-01    0    5.79e-01
2002 11 09  1210    52587   43800      0    8.38e-01    0    5.86e-01
2002 11 09  1215    52587   44100      0    8.22e-01    0    5.71e-01
2002 11 09  1220    52587   44400      0    8.32e-01    0    5.86e-01
2002 11 09  1225    52587   44700      0    8.23e-01    0    5.82e-01
2002 11 09  1230    52587   45000      0    8.43e-01    0    5.98e-01
2002 11 09  1235    52587   45300      0    8.15e-01    0    5.60e-01
2002 11 09  1240    52587   45600      0    8.40e-01    0    5.84e-01
2002 11 09  1245    52587   45900      0    8.34e-01    0    5.81e-01
2002 11 09  1250    52587   46200      0    8.30e-01    0    5.77e-01
2002 11 09  1255    52587   46500      0    8.28e-01    0    5.83e-01
2002 11 09  1300    52587   46800      0    8.33e-01    0    5.83e-01
2002 11 09  1305    52587   47100      0    8.01e-01    0    5.60e-01
2002 11 09  1310    52587   47400      0    8.33e-01    0    5.80e-01
2002 11 09  1315    52587   47700      0    8.18e-01    0    5.77e-01
2002 11 09  1320    52587   48000      0    8.42e-01    0    5.90e-01
2002 11 09  1325    52587   48300      0    8.33e-01    0    5.80e-01
2002 11 09  1330    52587   48600      0    8.28e-01    0    5.88e-01
2002 11 09  1335    52587   48900      0    8.26e-01    0    5.73e-01
2002 11 09  1340    52587   49200      0    8.37e-01    0    5.80e-01
2002 11 09  1345    52587   49500      0    8.30e-01    0    5.79e-01
2002 11 09  1350    52587   49800      0    8.40e-01    0    5.86e-01
2002 11 09  1355    52587   50100      0    8.30e-01    0    5.74e-01
2002 11 09  1400    52587   50400      0    8.28e-01    0    5.80e-01
2002 11 09  1405    52587   50700      0    8.28e-01    0    5.78e-01
2002 11 09  1410    52587   51000      0    8.50e-01    0    5.93e-01
2002 11 09  1415    52587   51300      0    8.31e-01    0    5.75e-01
2002 11 09  1420    52587   51600      0    8.56e-01    0    6.01e-01
2002 11 09  1425    52587   51900      0    8.23e-01    0    5.82e-01
2002 11 09  1430    52587   52200      0    8.27e-01    0    5.72e-01
2002 11 09  1435    52587   52500      0    8.24e-01    0    5.79e-01
2002 11 09  1440    52587   52800      0    8.31e-01    0    5.86e-01
2002 11 09  1445    52587   53100      0    8.19e-01    0    5.72e-01
2002 11 09  1450    52587   53400      0    8.48e-01    0    5.98e-01
2002 11 09  1455    52587   53700      0    8.90e-01    0    6.20e-01
2002 11 09  1500    52587   54000      0    8.82e-01    0    6.22e-01
2002 11 09  1505    52587   54300      0    8.97e-01    0    6.23e-01
2002 11 09  1510    52587   54600      0    9.34e-01    0    6.47e-01
2002 11 09  1515    52587   54900      0    9.60e-01    0    6.67e-01
2002 11 09  1520    52587   55200      0    9.96e-01    0    6.78e-01
2002 11 09  1525    52587   55500      0    1.02e+00    0    6.87e-01
2002 11 09  1530    52587   55800      0    1.07e+00    0    7.12e-01
2002 11 09  1535    52587   56100      0    1.13e+00    0    7.41e-01
2002 11 09  1540    52587   56400      0    1.19e+00    0    7.42e-01
2002 11 09  1545    52587   56700      0    1.27e+00    0    7.66e-01
2002 11 09  1550    52587   57000      0    1.32e+00    0    7.82e-01
2002 11 09  1555    52587   57300      0    1.44e+00    0    8.08e-01
2002 11 09  1600    52587   57600      0    1.53e+00    0    8.27e-01
2002 11 09  1605    52587   57900      0    1.65e+00    0    8.59e-01
2002 11 09  1610    52587   58200      0    1.68e+00    0    8.54e-01
2002 11 09  1615    52587   58500      0    1.74e+00    0    8.50e-01
2002 11 09  1620    52587   58800      0    1.75e+00    0    8.62e-01
2002 11 09  1625    52587   59100      0    1.68e+00    0    8.87e-01
2002 11 09  1630    52587   59400      0    1.63e+00    0    8.63e-01
2002 11 09  1635    52587   59700      0    1.60e+00    0    8.23e-01
2002 11 09  1640    52587   60000      0    1.62e+00    0    8.36e-01
2002 11 09  1645    52587   60300      0    1.70e+00    0    8.54e-01
2002 11 09  1650    52587   60600      0    1.77e+00    0    8.61e-01
2002 11 09  1655    52587   60900      0    1.89e+00    0    8.70e-01
2002 11 09  1700    52587   61200      0    1.99e+00    0    8.81e-01
2002 11 09  1705    52587   61500      0    2.08e+00    0    8.51e-01
2002 11 09  1710    52587   61800      0    2.43e+00    0    8.98e-01
2002 11 09  1715    52587   62100      0    2.58e+00    0    9.14e-01
2002 11 09  1720    52587   62400      0    2.82e+00    0    9.20e-01
2002 11 09  1725    52587   62700      0    2.85e+00    0    9.27e-01
2002 11 09  1730    52587   63000      0    2.63e+00    0    9.17e-01
2002 11 09  1735    52587   63300      0    2.97e+00    0    9.79e-01
2002 11 09  1740    52587   63600      0    3.14e+00    0    9.84e-01
2002 11 09  1745    52587   63900      0    2.79e+00    0    9.33e-01
2002 11 09  1750    52587   64200      0    2.82e+00    0    9.47e-01
2002 11 09  1755    52587   64500      0    5.07e+00    0    1.20e+00
2002 11 09  1800    52587   64800      0    5.77e+00    0    1.32e+00
2002 11 09  1805    52587   65100      0    6.03e+00    0    1.34e+00
2002 11 09  1810    52587   65400      0    6.24e+00    0    1.36e+00
2002 11 09  1815    52587   65700      0    6.39e+00    0    1.37e+00
2002 11 09  1820    52587   66000      0    7.07e+00    0    1.45e+00
2002 11 09  1825    52587   66300      0    6.95e+00    0    1.42e+00
2002 11 09  1830    52587   66600      0    7.17e+00    0    1.53e+00
2002 11 09  1835    52587   66900      0    7.04e+00    0    1.46e+00
2002 11 09  1840    52587   67200      0    7.57e+00    0    1.56e+00
2002 11 09  1845    52587   67500      0    7.69e+00    0    1.55e+00
2002 11 09  1850    52587   67800      0    8.87e+00    0    1.72e+00
2002 11 09  1855    52587   68100      0    9.67e+00    0    1.74e+00
2002 11 09  1900    52587   68400      0    1.07e+01    0    1.81e+00
2002 11 09  1905    52587   68700      0    1.12e+01    0    1.87e+00
2002 11 09  1910    52587   69000      0    1.20e+01    0    2.08e+00
2002 11 09  1915    52587   69300      0    1.28e+01    0    2.01e+00
2002 11 09  1920    52587   69600      0    1.03e+01    0    1.81e+00
2002 11 09  1925    52587   69900      0    9.76e+00    0    1.73e+00
2002 11 09  1930    52587   70200      0    9.97e+00    0    1.79e+00
2002 11 09  1935    52587   70500      0    9.25e+00    0    1.73e+00
2002 11 09  1940    52587   70800      0    9.85e+00    0    1.75e+00
2002 11 09  1945    52587   71100      0    1.07e+01    0    1.95e+00
2002 11 09  1950    52587   71400      0    1.25e+01    0    1.98e+00
2002 11 09  1955    52587   71700      0    1.51e+01    0    2.20e+00
2002 11 09  2000    52587   72000      0    1.62e+01    0    2.51e+00
2002 11 09  2005    52587   72300      0    1.71e+01    0    2.43e+00
2002 11 09  2010    52587   72600      0    1.69e+01    0    2.57e+00
2002 11 09  2015    52587   72900      0    1.66e+01    0    2.56e+00
2002 11 09  2020    52587   73200      0    1.62e+01    0    2.43e+00
2002 11 09  2025    52587   73500      0    1.54e+01    0    2.39e+00
2002 11 09  2030    52587   73800      0    1.57e+01    0    2.48e+00
2002 11 09  2035    52587   74100      0    1.50e+01    0    2.34e+00
2002 11 09  2040    52587   74400      0    2.04e+01    0    2.92e+00
2002 11 09  2045    52587   74700      0    3.57e+01    0    4.19e+00
2002 11 09  2050    52587   75000      0    3.64e+01    0    4.62e+00
2002 11 09  2055    52587   75300      0    2.97e+01    0    4.01e+00
2002 11 09  2100    52587   75600      0    2.25e+01    0    3.18e+00
2002 11 09  2105    52587   75900      0    1.65e+01    0    2.65e+00
2002 11 09  2110    52587   76200      0    1.84e+01    0    2.82e+00
2002 11 09  2115    52587   76500      0    2.02e+01    0    2.93e+00
2002 11 09  2120    52587   76800      0    2.38e+01    0    3.33e+00
2002 11 09  2125    52587   77100      0    2.72e+01    0    3.49e+00
2002 11 09  2130    52587   77400      0    3.58e+01    0    4.16e+00
2002 11 09  2135    52587   77700      0    4.06e+01    0    4.41e+00
2002 11 09  2140    52587   78000      0    4.88e+01    0    5.87e+00
2002 11 09  2145    52587   78300      0    4.53e+01    0    5.46e+00
2002 11 09  2150    52587   78600      0    7.01e+01    0    7.56e+00
2002 11 09  2155    52587   78900      0    8.16e+01    0    8.60e+00
2002 11 09  2200    52587   79200      0    9.37e+01    0    9.95e+00
2002 11 09  2205    52587   79500      0    9.16e+01    0    9.53e+00
2002 11 09  2210    52587   79800      0    8.23e+01    0    9.52e+00
2002 11 09  2215    52587   80100      0    7.69e+01    0    8.40e+00
2002 11 09  2220    52587   80400      0    7.48e+01    0    8.11e+00
2002 11 09  2225    52587   80700      0    6.69e+01    0    7.51e+00
2002 11 09  2230    52587   81000      0    6.21e+01    0    6.98e+00
2002 11 09  2235    52587   81300      0    5.94e+01    0    6.58e+00
2002 11 09  2240    52587   81600      0    6.01e+01    0    7.10e+00
2002 11 09  2245    52587   81900      0    6.60e+01    0    7.87e+00
2002 11 09  2250    52587   82200      0    6.28e+01    0    7.69e+00
2002 11 09  2255    52587   82500      0    6.20e+01    0    7.88e+00
2002 11 09  2300    52587   82800      0    6.28e+01    0    7.76e+00
2002 11 09  2305    52587   83100      0    6.41e+01    0    7.32e+00
2002 11 09  2310    52587   83400      0    6.66e+01    0    7.76e+00
2002 11 09  2315    52587   83700      0    6.63e+01    0    7.68e+00
2002 11 09  2320    52587   84000      0    6.97e+01    0    8.34e+00
2002 11 09  2325    52587   84300      0    7.10e+01    0    8.06e+00
2002 11 09  2330    52587   84600      0    7.09e+01    0    7.78e+00
2002 11 09  2335    52587   84900      0    7.28e+01    0    8.00e+00
2002 11 09  2340    52587   85200      0    8.03e+01    0    8.66e+00
2002 11 09  2345    52587   85500      0    9.69e+01    0    9.10e+00
2002 11 09  2350    52587   85800      0    1.35e+02    0    1.17e+01
2002 11 09  2355    52587   86100      0    1.32e+02    0    1.25e+01
