:Data_list: 20021102_ace_sis_5m.txt
:Created: 2002 Nov 03 0011 UT
# Prepared by the U.S. Dept. of Commerce, NOAA, Space Environment Center.
# Please send comments and suggestions to sec@sec.noaa.gov 
# 
# Units: proton flux p/cs2-sec-ster
# Status(S): 0 = nominal data, 1 to 8 = bad data record, 9 = no data
# Missing data values: -1.00e+05
# Source: ACE Satellite - Solar Isotope Spectrometer
#
# 5-minute averaged Real-time Integral Flux of High-energy Solar Protons
# 
#                 Modified Seconds
# UT Date   Time   Julian  of the      ---- Integral Proton Flux ----
# YR MO DA  HHMM     Day     Day       S    > 10 MeV    S    > 30 MeV
#--------------------------------------------------------------------
2002 11 02  0000    52580       0      0    1.90e+00    0    7.82e-01
2002 11 02  0005    52580     300      0    1.86e+00    0    7.61e-01
2002 11 02  0010    52580     600      0    1.87e+00    0    7.58e-01
2002 11 02  0015    52580     900      0    1.94e+00    0    7.98e-01
2002 11 02  0020    52580    1200      0    1.87e+00    0    7.57e-01
2002 11 02  0025    52580    1500      0    1.90e+00    0    7.77e-01
2002 11 02  0030    52580    1800      0    1.89e+00    0    7.79e-01
2002 11 02  0035    52580    2100      0    1.88e+00    0    7.68e-01
2002 11 02  0040    52580    2400      0    1.93e+00    0    8.00e-01
2002 11 02  0045    52580    2700      0    1.97e+00    0    8.19e-01
2002 11 02  0050    52580    3000      0    1.90e+00    0    7.79e-01
2002 11 02  0055    52580    3300      0    1.87e+00    0    7.52e-01
2002 11 02  0100    52580    3600      0    1.89e+00    0    7.79e-01
2002 11 02  0105    52580    3900      0    1.86e+00    0    7.64e-01
2002 11 02  0110    52580    4200      0    1.88e+00    0    7.56e-01
2002 11 02  0115    52580    4500      0    1.90e+00    0    7.70e-01
2002 11 02  0120    52580    4800      0    1.91e+00    0    8.01e-01
2002 11 02  0125    52580    5100      0    1.90e+00    0    7.74e-01
2002 11 02  0130    52580    5400      0    1.88e+00    0    7.86e-01
2002 11 02  0135    52580    5700      0    1.88e+00    0    7.54e-01
2002 11 02  0140    52580    6000      0    1.90e+00    0    7.90e-01
2002 11 02  0145    52580    6300      0    1.89e+00    0    7.77e-01
2002 11 02  0150    52580    6600      0    1.90e+00    0    7.82e-01
2002 11 02  0155    52580    6900      0    1.89e+00    0    7.57e-01
2002 11 02  0200    52580    7200      0    1.89e+00    0    7.70e-01
2002 11 02  0205    52580    7500      0    1.76e+00    0    7.23e-01
2002 11 02  0210    52580    7800      0    1.90e+00    0    7.72e-01
2002 11 02  0215    52580    8100      0    1.89e+00    0    7.73e-01
2002 11 02  0220    52580    8400      0    1.84e+00    0    7.44e-01
2002 11 02  0225    52580    8700      0    1.85e+00    0    7.61e-01
2002 11 02  0230    52580    9000      0    1.86e+00    0    7.68e-01
2002 11 02  0235    52580    9300      0    1.88e+00    0    7.60e-01
2002 11 02  0240    52580    9600      0    1.90e+00    0    7.83e-01
2002 11 02  0245    52580    9900      0    1.89e+00    0    7.82e-01
2002 11 02  0250    52580   10200      0    1.83e+00    0    7.78e-01
2002 11 02  0255    52580   10500      0    1.82e+00    0    7.69e-01
2002 11 02  0300    52580   10800      0    1.87e+00    0    7.72e-01
2002 11 02  0305    52580   11100      0    1.86e+00    0    7.80e-01
2002 11 02  0310    52580   11400      0    1.85e+00    0    7.63e-01
2002 11 02  0315    52580   11700      0    1.81e+00    0    7.46e-01
2002 11 02  0320    52580   12000      0    1.81e+00    0    7.64e-01
2002 11 02  0325    52580   12300      0    1.86e+00    0    7.76e-01
2002 11 02  0330    52580   12600      0    1.85e+00    0    7.88e-01
2002 11 02  0335    52580   12900      0    1.80e+00    0    7.45e-01
2002 11 02  0340    52580   13200      0    1.85e+00    0    7.74e-01
2002 11 02  0345    52580   13500      0    1.86e+00    0    7.82e-01
2002 11 02  0350    52580   13800      0    1.87e+00    0    7.89e-01
2002 11 02  0355    52580   14100      0    1.79e+00    0    7.60e-01
2002 11 02  0400    52580   14400      0    1.83e+00    0    7.63e-01
2002 11 02  0405    52580   14700      0    1.84e+00    0    7.62e-01
2002 11 02  0410    52580   15000      0    1.84e+00    0    7.58e-01
2002 11 02  0415    52580   15300      0    1.87e+00    0    7.85e-01
2002 11 02  0420    52580   15600      0    1.79e+00    0    7.56e-01
2002 11 02  0425    52580   15900      0    1.78e+00    0    7.47e-01
2002 11 02  0430    52580   16200      0    1.82e+00    0    7.78e-01
2002 11 02  0435    52580   16500      0    1.85e+00    0    7.80e-01
2002 11 02  0440    52580   16800      0    1.85e+00    0    7.54e-01
2002 11 02  0445    52580   17100      0    1.89e+00    0    7.80e-01
2002 11 02  0450    52580   17400      0    1.85e+00    0    7.59e-01
2002 11 02  0455    52580   17700      0    1.88e+00    0    7.78e-01
2002 11 02  0500    52580   18000      0    1.88e+00    0    7.71e-01
2002 11 02  0505    52580   18300      0    1.90e+00    0    7.81e-01
2002 11 02  0510    52580   18600      0    1.89e+00    0    7.52e-01
2002 11 02  0515    52580   18900      0    1.88e+00    0    7.69e-01
2002 11 02  0520    52580   19200      0    1.89e+00    0    7.87e-01
2002 11 02  0525    52580   19500      0    1.84e+00    0    7.38e-01
2002 11 02  0530    52580   19800      0    1.81e+00    0    7.40e-01
2002 11 02  0535    52580   20100      0    1.84e+00    0    7.66e-01
2002 11 02  0540    52580   20400      0    1.84e+00    0    7.63e-01
2002 11 02  0545    52580   20700      0    1.86e+00    0    7.78e-01
2002 11 02  0550    52580   21000      0    1.84e+00    0    7.72e-01
2002 11 02  0555    52580   21300      0    1.83e+00    0    7.56e-01
2002 11 02  0600    52580   21600      0    1.79e+00    0    7.44e-01
2002 11 02  0605    52580   21900      0    1.83e+00    0    7.59e-01
2002 11 02  0610    52580   22200      0    1.79e+00    0    7.41e-01
2002 11 02  0615    52580   22500      0    1.80e+00    0    7.34e-01
2002 11 02  0620    52580   22800      0    1.80e+00    0    7.44e-01
2002 11 02  0625    52580   23100      0    1.84e+00    0    7.62e-01
2002 11 02  0630    52580   23400      0    1.79e+00    0    7.50e-01
2002 11 02  0635    52580   23700      0    1.82e+00    0    7.43e-01
2002 11 02  0640    52580   24000      0    1.77e+00    0    7.34e-01
2002 11 02  0645    52580   24300      0    1.82e+00    0    7.63e-01
2002 11 02  0650    52580   24600      0    1.83e+00    0    7.50e-01
2002 11 02  0655    52580   24900      0    1.84e+00    0    7.64e-01
2002 11 02  0700    52580   25200      0    1.81e+00    0    7.61e-01
2002 11 02  0705    52580   25500      0    1.80e+00    0    7.46e-01
2002 11 02  0710    52580   25800      0    1.81e+00    0    7.60e-01
2002 11 02  0715    52580   26100      0    1.79e+00    0    7.44e-01
2002 11 02  0720    52580   26400      0    1.82e+00    0    7.61e-01
2002 11 02  0725    52580   26700      0    1.77e+00    0    7.18e-01
2002 11 02  0730    52580   27000      0    1.80e+00    0    7.38e-01
2002 11 02  0735    52580   27300      0    1.76e+00    0    7.39e-01
2002 11 02  0740    52580   27600      0    1.78e+00    0    7.49e-01
2002 11 02  0745    52580   27900      0    1.75e+00    0    7.31e-01
2002 11 02  0750    52580   28200      0    1.79e+00    0    7.55e-01
2002 11 02  0755    52580   28500      0    1.79e+00    0    7.50e-01
2002 11 02  0800    52580   28800      0    1.75e+00    0    7.26e-01
2002 11 02  0805    52580   29100      0    1.77e+00    0    7.22e-01
2002 11 02  0810    52580   29400      0    1.79e+00    0    7.31e-01
2002 11 02  0815    52580   29700      0    1.80e+00    0    7.39e-01
2002 11 02  0820    52580   30000      0    1.77e+00    0    7.22e-01
2002 11 02  0825    52580   30300      0    1.75e+00    0    7.29e-01
2002 11 02  0830    52580   30600      0    1.79e+00    0    7.56e-01
2002 11 02  0835    52580   30900      0    1.75e+00    0    7.09e-01
2002 11 02  0840    52580   31200      0    1.78e+00    0    7.41e-01
2002 11 02  0845    52580   31500      0    1.75e+00    0    7.36e-01
2002 11 02  0850    52580   31800      9   -1.00e+05    9   -1.00e+05
2002 11 02  0855    52580   32100      9   -1.00e+05    9   -1.00e+05
2002 11 02  0900    52580   32400      9   -1.00e+05    9   -1.00e+05
2002 11 02  0905    52580   32700      9   -1.00e+05    9   -1.00e+05
2002 11 02  0910    52580   33000      9   -1.00e+05    9   -1.00e+05
2002 11 02  0915    52580   33300      9   -1.00e+05    9   -1.00e+05
2002 11 02  0920    52580   33600      9   -1.00e+05    9   -1.00e+05
2002 11 02  0925    52580   33900      9   -1.00e+05    9   -1.00e+05
2002 11 02  0930    52580   34200      9   -1.00e+05    9   -1.00e+05
2002 11 02  0935    52580   34500      9   -1.00e+05    9   -1.00e+05
2002 11 02  0940    52580   34800      9   -1.00e+05    9   -1.00e+05
2002 11 02  0945    52580   35100      0    1.73e+00    0    7.32e-01
2002 11 02  0950    52580   35400      0    1.75e+00    0    7.51e-01
2002 11 02  0955    52580   35700      0    1.75e+00    0    7.47e-01
2002 11 02  1000    52580   36000      0    1.76e+00    0    7.35e-01
2002 11 02  1005    52580   36300      0    1.76e+00    0    7.40e-01
2002 11 02  1010    52580   36600      0    1.76e+00    0    7.38e-01
2002 11 02  1015    52580   36900      0    1.70e+00    0    7.30e-01
2002 11 02  1020    52580   37200      0    1.76e+00    0    7.62e-01
2002 11 02  1025    52580   37500      0    1.69e+00    0    7.33e-01
2002 11 02  1030    52580   37800      0    1.70e+00    0    7.24e-01
2002 11 02  1035    52580   38100      0    1.68e+00    0    6.98e-01
2002 11 02  1040    52580   38400      0    1.66e+00    0    7.18e-01
2002 11 02  1045    52580   38700      0    1.71e+00    0    7.34e-01
2002 11 02  1050    52580   39000      0    1.69e+00    0    7.17e-01
2002 11 02  1055    52580   39300      0    1.67e+00    0    7.33e-01
2002 11 02  1100    52580   39600      0    1.68e+00    0    7.28e-01
2002 11 02  1105    52580   39900      0    1.69e+00    0    7.16e-01
2002 11 02  1110    52580   40200      0    1.73e+00    0    7.36e-01
2002 11 02  1115    52580   40500      0    1.68e+00    0    7.16e-01
2002 11 02  1120    52580   40800      0    1.67e+00    0    7.16e-01
2002 11 02  1125    52580   41100      0    1.67e+00    0    7.09e-01
2002 11 02  1130    52580   41400      0    1.67e+00    0    7.07e-01
2002 11 02  1135    52580   41700      0    1.67e+00    0    7.23e-01
2002 11 02  1140    52580   42000      0    1.72e+00    0    7.61e-01
2002 11 02  1145    52580   42300      0    1.66e+00    0    7.15e-01
2002 11 02  1150    52580   42600      0    1.67e+00    0    7.26e-01
2002 11 02  1155    52580   42900      0    1.68e+00    0    7.23e-01
2002 11 02  1200    52580   43200      0    1.64e+00    0    7.14e-01
2002 11 02  1205    52580   43500      0    1.67e+00    0    7.21e-01
2002 11 02  1210    52580   43800      0    1.69e+00    0    7.22e-01
2002 11 02  1215    52580   44100      0    1.67e+00    0    7.25e-01
2002 11 02  1220    52580   44400      0    1.69e+00    0    7.37e-01
2002 11 02  1225    52580   44700      0    1.65e+00    0    7.00e-01
2002 11 02  1230    52580   45000      0    1.66e+00    0    7.06e-01
2002 11 02  1235    52580   45300      0    1.67e+00    0    7.30e-01
2002 11 02  1240    52580   45600      9   -1.00e+05    9   -1.00e+05
2002 11 02  1245    52580   45900      9   -1.00e+05    9   -1.00e+05
2002 11 02  1250    52580   46200      9   -1.00e+05    9   -1.00e+05
2002 11 02  1255    52580   46500      0    1.75e+00    0    7.63e-01
2002 11 02  1300    52580   46800      0    1.76e+00    0    7.20e-01
2002 11 02  1305    52580   47100      0    1.71e+00    0    7.53e-01
2002 11 02  1310    52580   47400      0    1.69e+00    0    7.25e-01
2002 11 02  1315    52580   47700      0    1.67e+00    0    7.41e-01
2002 11 02  1320    52580   48000      0    1.67e+00    0    7.26e-01
2002 11 02  1325    52580   48300      0    1.70e+00    0    7.42e-01
2002 11 02  1330    52580   48600      0    1.65e+00    0    7.30e-01
2002 11 02  1335    52580   48900      0    1.67e+00    0    7.22e-01
2002 11 02  1340    52580   49200      0    1.71e+00    0    7.38e-01
2002 11 02  1345    52580   49500      0    1.69e+00    0    7.41e-01
2002 11 02  1350    52580   49800      0    1.67e+00    0    7.28e-01
2002 11 02  1355    52580   50100      0    1.68e+00    0    7.71e-01
2002 11 02  1400    52580   50400      0    1.64e+00    0    7.33e-01
2002 11 02  1405    52580   50700      0    1.61e+00    0    7.13e-01
2002 11 02  1410    52580   51000      0    1.60e+00    0    6.93e-01
2002 11 02  1415    52580   51300      0    1.64e+00    0    7.19e-01
2002 11 02  1420    52580   51600      0    1.66e+00    0    7.33e-01
2002 11 02  1425    52580   51900      0    1.62e+00    0    6.98e-01
2002 11 02  1430    52580   52200      0    1.64e+00    0    7.10e-01
2002 11 02  1435    52580   52500      0    1.58e+00    0    6.81e-01
2002 11 02  1440    52580   52800      0    1.59e+00    0    6.91e-01
2002 11 02  1445    52580   53100      0    1.57e+00    0    6.91e-01
2002 11 02  1450    52580   53400      0    1.58e+00    0    6.90e-01
2002 11 02  1455    52580   53700      0    1.55e+00    0    6.97e-01
2002 11 02  1500    52580   54000      0    1.57e+00    0    6.92e-01
2002 11 02  1505    52580   54300      0    1.55e+00    0    6.88e-01
2002 11 02  1510    52580   54600      0    1.59e+00    0    7.19e-01
2002 11 02  1515    52580   54900      0    1.58e+00    0    6.92e-01
2002 11 02  1520    52580   55200      0    1.65e+00    0    7.18e-01
2002 11 02  1525    52580   55500      0    1.58e+00    0    6.83e-01
2002 11 02  1530    52580   55800      0    1.65e+00    0    7.37e-01
2002 11 02  1535    52580   56100      0    1.60e+00    0    7.08e-01
2002 11 02  1540    52580   56400      0    1.61e+00    0    7.12e-01
2002 11 02  1545    52580   56700      0    1.59e+00    0    7.18e-01
2002 11 02  1550    52580   57000      0    1.64e+00    0    7.38e-01
2002 11 02  1555    52580   57300      0    1.60e+00    0    7.11e-01
2002 11 02  1600    52580   57600      0    1.62e+00    0    7.15e-01
2002 11 02  1605    52580   57900      0    1.60e+00    0    7.32e-01
2002 11 02  1610    52580   58200      0    1.59e+00    0    7.24e-01
2002 11 02  1615    52580   58500      0    1.54e+00    0    6.83e-01
2002 11 02  1620    52580   58800      0    1.55e+00    0    6.84e-01
2002 11 02  1625    52580   59100      0    1.55e+00    0    6.88e-01
2002 11 02  1630    52580   59400      0    1.60e+00    0    7.19e-01
2002 11 02  1635    52580   59700      0    1.60e+00    0    7.13e-01
2002 11 02  1640    52580   60000      0    1.59e+00    0    7.14e-01
2002 11 02  1645    52580   60300      0    1.59e+00    0    7.24e-01
2002 11 02  1650    52580   60600      0    1.59e+00    0    7.02e-01
2002 11 02  1655    52580   60900      0    1.58e+00    0    7.04e-01
2002 11 02  1700    52580   61200      0    1.58e+00    0    7.16e-01
2002 11 02  1705    52580   61500      0    1.62e+00    0    7.31e-01
2002 11 02  1710    52580   61800      0    1.63e+00    0    7.31e-01
2002 11 02  1715    52580   62100      0    1.62e+00    0    7.12e-01
2002 11 02  1720    52580   62400      0    1.60e+00    0    6.99e-01
2002 11 02  1725    52580   62700      0    1.60e+00    0    7.14e-01
2002 11 02  1730    52580   63000      0    1.61e+00    0    7.20e-01
2002 11 02  1735    52580   63300      0    1.62e+00    0    7.15e-01
2002 11 02  1740    52580   63600      0    1.58e+00    0    7.06e-01
2002 11 02  1745    52580   63900      0    1.59e+00    0    7.02e-01
2002 11 02  1750    52580   64200      0    1.56e+00    0    6.87e-01
2002 11 02  1755    52580   64500      0    1.51e+00    0    7.07e-01
2002 11 02  1800    52580   64800      0    1.55e+00    0    6.82e-01
2002 11 02  1805    52580   65100      0    1.57e+00    0    7.03e-01
2002 11 02  1810    52580   65400      0    1.53e+00    0    6.86e-01
2002 11 02  1815    52580   65700      0    1.53e+00    0    6.77e-01
2002 11 02  1820    52580   66000      0    1.57e+00    0    7.01e-01
2002 11 02  1825    52580   66300      0    1.59e+00    0    7.08e-01
2002 11 02  1830    52580   66600      0    1.57e+00    0    7.18e-01
2002 11 02  1835    52580   66900      0    1.60e+00    0    7.17e-01
2002 11 02  1840    52580   67200      0    1.59e+00    0    7.13e-01
2002 11 02  1845    52580   67500      0    1.60e+00    0    6.98e-01
2002 11 02  1850    52580   67800      0    1.64e+00    0    7.27e-01
2002 11 02  1855    52580   68100      0    1.62e+00    0    7.14e-01
2002 11 02  1900    52580   68400      0    1.59e+00    0    6.99e-01
2002 11 02  1905    52580   68700      0    1.57e+00    0    7.06e-01
2002 11 02  1910    52580   69000      0    1.59e+00    0    7.14e-01
2002 11 02  1915    52580   69300      0    1.54e+00    0    7.00e-01
2002 11 02  1920    52580   69600      0    1.60e+00    0    7.20e-01
2002 11 02  1925    52580   69900      9   -1.00e+05    9   -1.00e+05
2002 11 02  1930    52580   70200      9   -1.00e+05    9   -1.00e+05
2002 11 02  1935    52580   70500      9   -1.00e+05    9   -1.00e+05
2002 11 02  1940    52580   70800      9   -1.00e+05    9   -1.00e+05
2002 11 02  1945    52580   71100      0    1.57e+00    0    7.18e-01
2002 11 02  1950    52580   71400      0    1.61e+00    0    7.23e-01
2002 11 02  1955    52580   71700      0    1.60e+00    0    7.03e-01
2002 11 02  2000    52580   72000      0    1.59e+00    0    7.17e-01
2002 11 02  2005    52580   72300      0    1.57e+00    0    6.99e-01
2002 11 02  2010    52580   72600      0    1.56e+00    0    7.01e-01
2002 11 02  2015    52580   72900      0    1.60e+00    0    7.15e-01
2002 11 02  2020    52580   73200      0    1.57e+00    0    7.12e-01
2002 11 02  2025    52580   73500      0    1.57e+00    0    6.99e-01
2002 11 02  2030    52580   73800      0    1.55e+00    0    7.08e-01
2002 11 02  2035    52580   74100      0    1.55e+00    0    7.20e-01
2002 11 02  2040    52580   74400      0    1.57e+00    0    7.13e-01
2002 11 02  2045    52580   74700      0    1.53e+00    0    7.00e-01
2002 11 02  2050    52580   75000      0    1.54e+00    0    6.98e-01
2002 11 02  2055    52580   75300      0    1.57e+00    0    7.10e-01
2002 11 02  2100    52580   75600      0    1.59e+00    0    7.30e-01
2002 11 02  2105    52580   75900      0    1.54e+00    0    6.71e-01
2002 11 02  2110    52580   76200      0    1.49e+00    0    6.59e-01
2002 11 02  2115    52580   76500      0    1.55e+00    0    6.86e-01
2002 11 02  2120    52580   76800      0    1.53e+00    0    6.86e-01
2002 11 02  2125    52580   77100      0    1.55e+00    0    7.00e-01
2002 11 02  2130    52580   77400      0    1.56e+00    0    7.33e-01
2002 11 02  2135    52580   77700      0    1.54e+00    0    6.97e-01
2002 11 02  2140    52580   78000      0    1.53e+00    0    6.98e-01
2002 11 02  2145    52580   78300      0    1.54e+00    0    6.96e-01
2002 11 02  2150    52580   78600      0    1.56e+00    0    7.03e-01
2002 11 02  2155    52580   78900      0    1.54e+00    0    7.10e-01
2002 11 02  2200    52580   79200      9   -1.00e+05    9   -1.00e+05
2002 11 02  2205    52580   79500      9   -1.00e+05    9   -1.00e+05
2002 11 02  2210    52580   79800      9   -1.00e+05    9   -1.00e+05
2002 11 02  2215    52580   80100      9   -1.00e+05    9   -1.00e+05
2002 11 02  2220    52580   80400      9   -1.00e+05    9   -1.00e+05
2002 11 02  2225    52580   80700      9   -1.00e+05    9   -1.00e+05
2002 11 02  2230    52580   81000      9   -1.00e+05    9   -1.00e+05
2002 11 02  2235    52580   81300      9   -1.00e+05    9   -1.00e+05
2002 11 02  2240    52580   81600      9   -1.00e+05    9   -1.00e+05
2002 11 02  2245    52580   81900      9   -1.00e+05    9   -1.00e+05
2002 11 02  2250    52580   82200      0    1.58e+00    0    7.22e-01
2002 11 02  2255    52580   82500      0    1.55e+00    0    7.08e-01
2002 11 02  2300    52580   82800      0    1.53e+00    0    6.93e-01
2002 11 02  2305    52580   83100      0    1.55e+00    0    7.04e-01
2002 11 02  2310    52580   83400      0    1.56e+00    0    7.05e-01
2002 11 02  2315    52580   83700      0    1.52e+00    0    6.91e-01
2002 11 02  2320    52580   84000      0    1.52e+00    0    6.91e-01
2002 11 02  2325    52580   84300      0    1.52e+00    0    6.76e-01
2002 11 02  2330    52580   84600      0    1.56e+00    0    7.01e-01
2002 11 02  2335    52580   84900      0    1.54e+00    0    7.07e-01
2002 11 02  2340    52580   85200      0    1.54e+00    0    6.98e-01
2002 11 02  2345    52580   85500      0    1.54e+00    0    6.90e-01
2002 11 02  2350    52580   85800      0    1.54e+00    0    6.96e-01
2002 11 02  2355    52580   86100      0    1.57e+00    0    7.02e-01
