:Data_list: 20020114_ace_sis_5m.txt
:Created: 2002 Jan 15 2121 UT
# Prepared by the U.S. Dept. of Commerce, NOAA, Space Environment Center.
# Please send comments and suggestions to sec@sec.noaa.gov 
# 
# Units: proton flux p/cs2-sec-ster
# Status(S): 0 = nominal data, 1 to 8 = bad data record, 9 = no data
# Missing data values: -1.00e+05
# Source: ACE Satellite - Solar Isotope Spectrometer
#
# 5-minute averaged Real-time Integral Flux of High-energy Solar Protons
# 
#                 Modified Seconds
# UT Date   Time   Julian  of the      ---- Integral Proton Flux ----
# YR MO DA  HHMM     Day     Day       S    > 10 MeV    S    > 30 MeV
#--------------------------------------------------------------------
2002 01 14  0000    52288       0      0    7.63e+00    0    8.57e-01
2002 01 14  0005    52288     300      0    7.44e+00    0    8.31e-01
2002 01 14  0010    52288     600      0    7.63e+00    0    8.07e-01
2002 01 14  0015    52288     900      0    8.09e+00    0    8.96e-01
2002 01 14  0020    52288    1200      0    8.27e+00    0    9.20e-01
2002 01 14  0025    52288    1500      0    8.02e+00    0    8.74e-01
2002 01 14  0030    52288    1800      0    7.67e+00    0    8.41e-01
2002 01 14  0035    52288    2100      0    7.49e+00    0    7.76e-01
2002 01 14  0040    52288    2400      0    7.69e+00    0    7.74e-01
2002 01 14  0045    52288    2700      0    7.74e+00    0    8.74e-01
2002 01 14  0050    52288    3000      0    7.57e+00    0    8.31e-01
2002 01 14  0055    52288    3300      0    7.75e+00    0    9.07e-01
2002 01 14  0100    52288    3600      0    7.77e+00    0    8.22e-01
2002 01 14  0105    52288    3900      0    7.75e+00    0    8.32e-01
2002 01 14  0110    52288    4200      0    7.67e+00    0    8.62e-01
2002 01 14  0115    52288    4500      0    7.26e+00    0    8.27e-01
2002 01 14  0120    52288    4800      0    7.26e+00    0    8.17e-01
2002 01 14  0125    52288    5100      0    7.51e+00    0    8.13e-01
2002 01 14  0130    52288    5400      0    7.30e+00    0    8.50e-01
2002 01 14  0135    52288    5700      0    7.34e+00    0    8.13e-01
2002 01 14  0140    52288    6000      0    7.38e+00    0    8.53e-01
2002 01 14  0145    52288    6300      0    6.87e+00    0    7.78e-01
2002 01 14  0150    52288    6600      0    7.06e+00    0    8.54e-01
2002 01 14  0155    52288    6900      0    7.26e+00    0    8.41e-01
2002 01 14  0200    52288    7200      0    7.31e+00    0    8.61e-01
2002 01 14  0205    52288    7500      0    7.28e+00    0    8.02e-01
2002 01 14  0210    52288    7800      0    7.36e+00    0    8.62e-01
2002 01 14  0215    52288    8100      0    7.37e+00    0    8.33e-01
2002 01 14  0220    52288    8400      0    7.52e+00    0    8.54e-01
2002 01 14  0225    52288    8700      0    7.35e+00    0    9.04e-01
2002 01 14  0230    52288    9000      0    7.16e+00    0    8.39e-01
2002 01 14  0235    52288    9300      0    6.95e+00    0    8.06e-01
2002 01 14  0240    52288    9600      0    7.04e+00    0    8.14e-01
2002 01 14  0245    52288    9900      0    7.05e+00    0    8.27e-01
2002 01 14  0250    52288   10200      0    7.22e+00    0    7.99e-01
2002 01 14  0255    52288   10500      0    7.06e+00    0    8.26e-01
2002 01 14  0300    52288   10800      0    7.11e+00    0    8.39e-01
2002 01 14  0305    52288   11100      0    7.05e+00    0    7.54e-01
2002 01 14  0310    52288   11400      0    7.04e+00    0    8.24e-01
2002 01 14  0315    52288   11700      0    6.97e+00    0    8.28e-01
2002 01 14  0320    52288   12000      0    7.04e+00    0    8.89e-01
2002 01 14  0325    52288   12300      0    7.25e+00    0    8.82e-01
2002 01 14  0330    52288   12600      0    6.92e+00    0    8.22e-01
2002 01 14  0335    52288   12900      0    7.84e+00    0    9.45e-01
2002 01 14  0340    52288   13200      0    7.21e+00    0    8.46e-01
2002 01 14  0345    52288   13500      0    7.13e+00    0    8.85e-01
2002 01 14  0350    52288   13800      0    6.80e+00    0    8.09e-01
2002 01 14  0355    52288   14100      0    6.91e+00    0    8.07e-01
2002 01 14  0400    52288   14400      0    6.72e+00    0    8.12e-01
2002 01 14  0405    52288   14700      0    6.79e+00    0    7.83e-01
2002 01 14  0410    52288   15000      0    6.78e+00    0    8.68e-01
2002 01 14  0415    52288   15300      0    6.77e+00    0    7.84e-01
2002 01 14  0420    52288   15600      0    6.87e+00    0    8.71e-01
2002 01 14  0425    52288   15900      0    6.89e+00    0    8.18e-01
2002 01 14  0430    52288   16200      0    6.86e+00    0    7.82e-01
2002 01 14  0435    52288   16500      0    6.82e+00    0    8.64e-01
2002 01 14  0440    52288   16800      0    6.76e+00    0    8.51e-01
2002 01 14  0445    52288   17100      0    6.81e+00    0    8.94e-01
2002 01 14  0450    52288   17400      0    6.64e+00    0    8.42e-01
2002 01 14  0455    52288   17700      0    6.98e+00    0    8.32e-01
2002 01 14  0500    52288   18000      0    6.75e+00    0    7.97e-01
2002 01 14  0505    52288   18300      0    6.79e+00    0    8.67e-01
2002 01 14  0510    52288   18600      0    6.57e+00    0    8.39e-01
2002 01 14  0515    52288   18900      0    6.76e+00    0    8.16e-01
2002 01 14  0520    52288   19200      0    6.80e+00    0    8.59e-01
2002 01 14  0525    52288   19500      0    6.67e+00    0    7.74e-01
2002 01 14  0530    52288   19800      0    6.70e+00    0    8.54e-01
2002 01 14  0535    52288   20100      0    6.66e+00    0    8.36e-01
2002 01 14  0540    52288   20400      0    6.69e+00    0    8.11e-01
2002 01 14  0545    52288   20700      0    6.78e+00    0    7.54e-01
2002 01 14  0550    52288   21000      0    6.92e+00    0    8.44e-01
2002 01 14  0555    52288   21300      0    6.62e+00    0    7.89e-01
2002 01 14  0600    52288   21600      0    6.66e+00    0    8.26e-01
2002 01 14  0605    52288   21900      0    6.63e+00    0    8.53e-01
2002 01 14  0610    52288   22200      0    6.46e+00    0    8.24e-01
2002 01 14  0615    52288   22500      0    6.37e+00    0    7.59e-01
2002 01 14  0620    52288   22800      0    7.23e+00    0    9.29e-01
2002 01 14  0625    52288   23100      0    7.13e+00    0    8.73e-01
2002 01 14  0630    52288   23400      0    6.35e+00    0    8.20e-01
2002 01 14  0635    52288   23700      0    6.34e+00    0    8.26e-01
2002 01 14  0640    52288   24000      0    6.49e+00    0    8.75e-01
2002 01 14  0645    52288   24300      0    6.38e+00    0    7.84e-01
2002 01 14  0650    52288   24600      0    6.55e+00    0    7.87e-01
2002 01 14  0655    52288   24900      0    6.62e+00    0    8.85e-01
2002 01 14  0700    52288   25200      0    6.69e+00    0    8.11e-01
2002 01 14  0705    52288   25500      0    6.76e+00    0    8.31e-01
2002 01 14  0710    52288   25800      0    6.66e+00    0    7.94e-01
2002 01 14  0715    52288   26100      0    6.90e+00    0    8.71e-01
2002 01 14  0720    52288   26400      0    6.76e+00    0    8.07e-01
2002 01 14  0725    52288   26700      0    6.75e+00    0    8.49e-01
2002 01 14  0730    52288   27000      0    7.13e+00    0    9.61e-01
2002 01 14  0735    52288   27300      0    6.87e+00    0    8.16e-01
2002 01 14  0740    52288   27600      0    6.77e+00    0    8.02e-01
2002 01 14  0745    52288   27900      0    6.86e+00    0    7.89e-01
2002 01 14  0750    52288   28200      0    6.95e+00    0    8.02e-01
2002 01 14  0755    52288   28500      0    7.36e+00    0    8.88e-01
2002 01 14  0800    52288   28800      0    7.73e+00    0    9.34e-01
2002 01 14  0805    52288   29100      0    6.91e+00    0    8.41e-01
2002 01 14  0810    52288   29400      0    7.39e+00    0    9.54e-01
2002 01 14  0815    52288   29700      0    8.19e+00    0    1.03e+00
2002 01 14  0820    52288   30000      0    7.38e+00    0    9.66e-01
2002 01 14  0825    52288   30300      0    7.16e+00    0    8.27e-01
2002 01 14  0830    52288   30600      0    7.00e+00    0    8.51e-01
2002 01 14  0835    52288   30900      0    6.99e+00    0    8.49e-01
2002 01 14  0840    52288   31200      0    7.00e+00    0    8.40e-01
2002 01 14  0845    52288   31500      0    7.18e+00    0    8.52e-01
2002 01 14  0850    52288   31800      0    7.35e+00    0    8.94e-01
2002 01 14  0855    52288   32100      0    7.01e+00    0    8.51e-01
2002 01 14  0900    52288   32400      0    7.12e+00    0    9.03e-01
2002 01 14  0905    52288   32700      0    7.07e+00    0    9.23e-01
2002 01 14  0910    52288   33000      0    6.59e+00    0    9.21e-01
2002 01 14  0915    52288   33300      0    6.43e+00    0    8.91e-01
2002 01 14  0920    52288   33600      0    6.65e+00    0    9.65e-01
2002 01 14  0925    52288   33900      0    7.44e+00    0    1.10e+00
2002 01 14  0930    52288   34200      0    7.11e+00    0    1.06e+00
2002 01 14  0935    52288   34500      0    7.00e+00    0    1.02e+00
2002 01 14  0940    52288   34800      0    7.01e+00    0    1.09e+00
2002 01 14  0945    52288   35100      0    6.79e+00    0    9.43e-01
2002 01 14  0950    52288   35400      0    6.57e+00    0    9.48e-01
2002 01 14  0955    52288   35700      0    6.57e+00    0    9.52e-01
2002 01 14  1000    52288   36000      0    6.55e+00    0    9.00e-01
2002 01 14  1005    52288   36300      0    6.54e+00    0    8.77e-01
2002 01 14  1010    52288   36600      0    6.68e+00    0    9.68e-01
2002 01 14  1015    52288   36900      0    6.72e+00    0    9.56e-01
2002 01 14  1020    52288   37200      0    6.52e+00    0    9.70e-01
2002 01 14  1025    52288   37500      0    6.53e+00    0    9.44e-01
2002 01 14  1030    52288   37800      0    6.49e+00    0    9.46e-01
2002 01 14  1035    52288   38100      0    6.59e+00    0    9.42e-01
2002 01 14  1040    52288   38400      0    6.59e+00    0    8.86e-01
2002 01 14  1045    52288   38700      0    6.98e+00    0    9.74e-01
2002 01 14  1050    52288   39000      0    6.87e+00    0    1.02e+00
2002 01 14  1055    52288   39300      0    6.92e+00    0    1.16e+00
2002 01 14  1100    52288   39600      0    6.69e+00    0    1.17e+00
2002 01 14  1105    52288   39900      0    6.86e+00    0    1.20e+00
2002 01 14  1110    52288   40200      0    6.73e+00    0    1.14e+00
2002 01 14  1115    52288   40500      0    6.80e+00    0    1.11e+00
2002 01 14  1120    52288   40800      0    6.92e+00    0    1.13e+00
2002 01 14  1125    52288   41100      0    6.87e+00    0    1.17e+00
2002 01 14  1130    52288   41400      0    6.48e+00    0    1.11e+00
2002 01 14  1135    52288   41700      0    6.89e+00    0    1.30e+00
2002 01 14  1140    52288   42000      0    6.89e+00    0    1.22e+00
2002 01 14  1145    52288   42300      0    6.47e+00    0    1.16e+00
2002 01 14  1150    52288   42600      0    6.65e+00    0    1.23e+00
2002 01 14  1155    52288   42900      0    6.39e+00    0    1.27e+00
2002 01 14  1200    52288   43200      0    6.61e+00    0    1.42e+00
2002 01 14  1205    52288   43500      0    6.56e+00    0    1.43e+00
2002 01 14  1210    52288   43800      0    6.42e+00    0    1.36e+00
2002 01 14  1215    52288   44100      0    6.58e+00    0    1.33e+00
2002 01 14  1220    52288   44400      0    6.57e+00    0    1.25e+00
2002 01 14  1225    52288   44700      0    6.65e+00    0    1.21e+00
2002 01 14  1230    52288   45000      0    7.42e+00    0    1.28e+00
2002 01 14  1235    52288   45300      0    6.90e+00    0    1.22e+00
2002 01 14  1240    52288   45600      0    6.85e+00    0    1.19e+00
2002 01 14  1245    52288   45900      0    6.43e+00    0    1.07e+00
2002 01 14  1250    52288   46200      9   -1.00e+05    9   -1.00e+05
2002 01 14  1255    52288   46500      9   -1.00e+05    9   -1.00e+05
2002 01 14  1300    52288   46800      9   -1.00e+05    9   -1.00e+05
2002 01 14  1305    52288   47100      9   -1.00e+05    9   -1.00e+05
2002 01 14  1310    52288   47400      9   -1.00e+05    9   -1.00e+05
2002 01 14  1315    52288   47700      9   -1.00e+05    9   -1.00e+05
2002 01 14  1320    52288   48000      9   -1.00e+05    9   -1.00e+05
2002 01 14  1325    52288   48300      9   -1.00e+05    9   -1.00e+05
2002 01 14  1330    52288   48600      9   -1.00e+05    9   -1.00e+05
2002 01 14  1335    52288   48900      0    5.99e+00    0    1.81e+00
2002 01 14  1340    52288   49200      0    6.50e+00    0    1.13e+00
2002 01 14  1345    52288   49500      0    1.95e-01    0    1.20e-01
2002 01 14  1350    52288   49800      0    2.95e-01    0    1.80e-01
2002 01 14  1355    52288   50100      0    2.69e+01    0    2.48e+01
2002 01 14  1400    52288   50400      0    2.63e+00    0    5.60e-01
2002 01 14  1405    52288   50700      0    3.20e+00    0    6.25e-01
2002 01 14  1410    52288   51000      0    6.59e+00    0    1.24e+00
2002 01 14  1415    52288   51300      0    9.31e+00    0    3.93e+00
2002 01 14  1420    52288   51600      0    4.44e+00    0    1.96e+00
2002 01 14  1425    52288   51900      9   -1.00e+05    0    7.92e+00
2002 01 14  1430    52288   52200      9   -1.00e+05    9   -1.00e+05
2002 01 14  1435    52288   52500      0    7.41e+00    0    1.31e+00
2002 01 14  1440    52288   52800      0    5.43e+00    0    9.95e-01
2002 01 14  1445    52288   53100      0    5.76e+00    0    1.13e+00
2002 01 14  1450    52288   53400      9   -1.00e+05    0    2.06e+00
2002 01 14  1455    52288   53700      0    5.05e+00    0    1.38e+00
2002 01 14  1500    52288   54000      0    7.01e+00    0    1.34e+00
2002 01 14  1505    52288   54300      0    6.69e+00    0    1.33e+00
2002 01 14  1510    52288   54600      0    1.90e-01    0    1.20e-01
2002 01 14  1515    52288   54900      0    3.53e+00    0    7.03e-01
2002 01 14  1520    52288   55200      9   -1.00e+05    9   -1.00e+05
2002 01 14  1525    52288   55500      0    3.14e+00    0    9.97e-01
2002 01 14  1530    52288   55800      0    6.91e+00    0    1.49e+00
2002 01 14  1535    52288   56100      0    1.90e-01    0    1.20e-01
2002 01 14  1540    52288   56400      0    4.13e+00    0    6.95e-01
2002 01 14  1545    52288   56700      0    8.21e+00    0    1.57e+00
2002 01 14  1550    52288   57000      0    7.60e+00    0    1.37e+00
2002 01 14  1555    52288   57300      0    7.43e+00    0    1.48e+00
2002 01 14  1600    52288   57600      0    5.62e+00    0    1.16e+00
2002 01 14  1605    52288   57900      0    8.09e+00    0    2.38e+00
2002 01 14  1610    52288   58200      0    7.26e+00    0    1.47e+00
2002 01 14  1615    52288   58500      9   -1.00e+05    9   -1.00e+05
2002 01 14  1620    52288   58800      9   -1.00e+05    9   -1.00e+05
2002 01 14  1625    52288   59100      0    7.03e+00    0    1.43e+00
2002 01 14  1630    52288   59400      0    6.90e+00    0    1.42e+00
2002 01 14  1635    52288   59700      0    7.09e+00    0    1.55e+00
2002 01 14  1640    52288   60000      0    7.49e+00    0    1.59e+00
2002 01 14  1645    52288   60300      0    7.85e+00    0    1.73e+00
2002 01 14  1650    52288   60600      0    7.26e+00    0    1.53e+00
2002 01 14  1655    52288   60900      0    7.22e+00    0    1.58e+00
2002 01 14  1700    52288   61200      0    7.50e+00    0    1.60e+00
2002 01 14  1705    52288   61500      0    7.62e+00    0    1.48e+00
2002 01 14  1710    52288   61800      0    7.32e+00    0    1.46e+00
2002 01 14  1715    52288   62100      0    7.48e+00    0    1.55e+00
2002 01 14  1720    52288   62400      0    7.41e+00    0    1.48e+00
2002 01 14  1725    52288   62700      0    7.25e+00    0    1.39e+00
2002 01 14  1730    52288   63000      0    6.89e+00    0    1.34e+00
2002 01 14  1735    52288   63300      0    6.75e+00    0    1.40e+00
2002 01 14  1740    52288   63600      0    6.68e+00    0    1.33e+00
2002 01 14  1745    52288   63900      0    6.73e+00    0    1.42e+00
2002 01 14  1750    52288   64200      0    6.75e+00    0    1.38e+00
2002 01 14  1755    52288   64500      0    6.78e+00    0    1.40e+00
2002 01 14  1800    52288   64800      0    6.79e+00    0    1.33e+00
2002 01 14  1805    52288   65100      0    6.91e+00    0    1.39e+00
2002 01 14  1810    52288   65400      0    6.58e+00    0    1.33e+00
2002 01 14  1815    52288   65700      0    6.66e+00    0    1.37e+00
2002 01 14  1820    52288   66000      0    6.55e+00    0    1.34e+00
2002 01 14  1825    52288   66300      0    6.66e+00    0    1.36e+00
2002 01 14  1830    52288   66600      0    6.73e+00    0    1.35e+00
2002 01 14  1835    52288   66900      0    7.16e+00    0    1.48e+00
2002 01 14  1840    52288   67200      0    7.10e+00    0    1.50e+00
2002 01 14  1845    52288   67500      0    7.34e+00    0    1.47e+00
2002 01 14  1850    52288   67800      0    7.21e+00    0    1.52e+00
2002 01 14  1855    52288   68100      0    6.83e+00    0    1.41e+00
2002 01 14  1900    52288   68400      0    6.74e+00    0    1.34e+00
2002 01 14  1905    52288   68700      0    6.73e+00    0    1.42e+00
2002 01 14  1910    52288   69000      0    6.75e+00    0    1.36e+00
2002 01 14  1915    52288   69300      0    6.67e+00    0    1.34e+00
2002 01 14  1920    52288   69600      0    6.69e+00    0    1.42e+00
2002 01 14  1925    52288   69900      0    7.11e+00    0    1.46e+00
2002 01 14  1930    52288   70200      0    7.07e+00    0    1.47e+00
2002 01 14  1935    52288   70500      0    7.19e+00    0    1.48e+00
2002 01 14  1940    52288   70800      0    7.01e+00    0    1.45e+00
2002 01 14  1945    52288   71100      0    6.64e+00    0    1.35e+00
2002 01 14  1950    52288   71400      0    6.87e+00    0    1.45e+00
2002 01 14  1955    52288   71700      0    6.65e+00    0    1.35e+00
2002 01 14  2000    52288   72000      0    6.76e+00    0    1.38e+00
2002 01 14  2005    52288   72300      0    6.89e+00    0    1.43e+00
2002 01 14  2010    52288   72600      0    6.81e+00    0    1.33e+00
2002 01 14  2015    52288   72900      0    6.99e+00    0    1.46e+00
2002 01 14  2020    52288   73200      0    7.11e+00    0    1.38e+00
2002 01 14  2025    52288   73500      0    7.16e+00    0    1.44e+00
2002 01 14  2030    52288   73800      0    7.08e+00    0    1.44e+00
2002 01 14  2035    52288   74100      0    6.70e+00    0    1.36e+00
2002 01 14  2040    52288   74400      0    6.68e+00    0    1.38e+00
2002 01 14  2045    52288   74700      0    6.88e+00    0    1.39e+00
2002 01 14  2050    52288   75000      0    7.02e+00    0    1.43e+00
2002 01 14  2055    52288   75300      0    7.05e+00    0    1.48e+00
2002 01 14  2100    52288   75600      0    6.83e+00    0    1.40e+00
2002 01 14  2105    52288   75900      0    6.97e+00    0    1.44e+00
2002 01 14  2110    52288   76200      0    7.56e+00    0    1.53e+00
2002 01 14  2115    52288   76500      0    7.19e+00    0    1.48e+00
2002 01 14  2120    52288   76800      0    6.97e+00    0    1.45e+00
2002 01 14  2125    52288   77100      0    7.03e+00    0    1.49e+00
2002 01 14  2130    52288   77400      0    6.83e+00    0    1.44e+00
2002 01 14  2135    52288   77700      0    7.55e+00    0    1.54e+00
2002 01 14  2140    52288   78000      0    7.04e+00    0    1.48e+00
2002 01 14  2145    52288   78300      0    6.94e+00    0    1.42e+00
2002 01 14  2150    52288   78600      0    7.16e+00    0    1.46e+00
2002 01 14  2155    52288   78900      0    7.38e+00    0    1.56e+00
2002 01 14  2200    52288   79200      0    6.96e+00    0    1.44e+00
2002 01 14  2205    52288   79500      0    6.99e+00    0    1.46e+00
2002 01 14  2210    52288   79800      0    7.18e+00    0    1.51e+00
2002 01 14  2215    52288   80100      0    7.39e+00    0    1.51e+00
2002 01 14  2220    52288   80400      0    7.28e+00    0    1.50e+00
2002 01 14  2225    52288   80700      0    7.04e+00    0    1.54e+00
2002 01 14  2230    52288   81000      0    6.95e+00    0    1.50e+00
2002 01 14  2235    52288   81300      0    6.83e+00    0    1.45e+00
2002 01 14  2240    52288   81600      0    7.18e+00    0    1.54e+00
2002 01 14  2245    52288   81900      0    7.07e+00    0    1.52e+00
2002 01 14  2250    52288   82200      0    6.96e+00    0    1.46e+00
2002 01 14  2255    52288   82500      0    7.23e+00    0    1.57e+00
2002 01 14  2300    52288   82800      0    6.97e+00    0    1.46e+00
2002 01 14  2305    52288   83100      0    7.03e+00    0    1.50e+00
2002 01 14  2310    52288   83400      0    7.12e+00    0    1.50e+00
2002 01 14  2315    52288   83700      0    7.07e+00    0    1.57e+00
2002 01 14  2320    52288   84000      0    7.02e+00    0    1.51e+00
2002 01 14  2325    52288   84300      0    7.23e+00    0    1.53e+00
2002 01 14  2330    52288   84600      0    7.09e+00    0    1.55e+00
2002 01 14  2335    52288   84900      0    7.08e+00    0    1.58e+00
2002 01 14  2340    52288   85200      0    7.23e+00    0    1.56e+00
2002 01 14  2345    52288   85500      0    7.29e+00    0    1.63e+00
2002 01 14  2350    52288   85800      0    6.92e+00    0    1.43e+00
2002 01 14  2355    52288   86100      0    7.06e+00    0    1.55e+00
