:Data_list: 20050914_ace_sis_5m.txt
:Created: 2005 Sep 15 0011 UT
# Prepared by the U.S. Dept. of Commerce, NOAA, Space Environment Center.
# Please send comments and suggestions to SEC.Webmaster@noaa.gov 
# 
# Units: proton flux p/cs2-sec-ster
# Status(S): 0 = nominal data, 1 to 8 = bad data record, 9 = no data
# Missing data values: -1.00e+05
# Source: ACE Satellite - Solar Isotope Spectrometer
#
# 5-minute averaged Real-time Integral Flux of High-energy Solar Protons
# 
#                 Modified Seconds
# UT Date   Time   Julian  of the      ---- Integral Proton Flux ----
# YR MO DA  HHMM     Day     Day       S    > 10 MeV    S    > 30 MeV
#--------------------------------------------------------------------
2005 09 14  0000    53627       0      0    1.96e+01    0    3.11e+00
2005 09 14  0005    53627     300      0    2.14e+01    0    3.24e+00
2005 09 14  0010    53627     600      0    2.48e+01    0    3.27e+00
2005 09 14  0015    53627     900      0    2.77e+01    0    3.48e+00
2005 09 14  0020    53627    1200      0    3.04e+01    0    3.47e+00
2005 09 14  0025    53627    1500      0    3.24e+01    0    4.00e+00
2005 09 14  0030    53627    1800      0    3.20e+01    0    3.82e+00
2005 09 14  0035    53627    2100      0    3.41e+01    0    3.88e+00
2005 09 14  0040    53627    2400      0    3.80e+01    0    4.33e+00
2005 09 14  0045    53627    2700      0    3.83e+01    0    4.29e+00
2005 09 14  0050    53627    3000      0    4.05e+01    0    4.48e+00
2005 09 14  0055    53627    3300      0    4.53e+01    0    4.71e+00
2005 09 14  0100    53627    3600      0    4.49e+01    0    4.71e+00
2005 09 14  0105    53627    3900      0    4.67e+01    0    4.54e+00
2005 09 14  0110    53627    4200      0    4.86e+01    0    5.00e+00
2005 09 14  0115    53627    4500      0    5.48e+01    0    5.64e+00
2005 09 14  0120    53627    4800      0    6.13e+01    0    5.61e+00
2005 09 14  0125    53627    5100      0    6.08e+01    0    5.80e+00
2005 09 14  0130    53627    5400      0    5.66e+01    0    5.75e+00
2005 09 14  0135    53627    5700      0    6.21e+01    0    6.27e+00
2005 09 14  0140    53627    6000      0    6.15e+01    0    6.22e+00
2005 09 14  0145    53627    6300      0    6.98e+01    0    6.47e+00
2005 09 14  0150    53627    6600      0    7.10e+01    0    7.24e+00
2005 09 14  0155    53627    6900      0    9.45e+01    0    8.50e+00
2005 09 14  0200    53627    7200      0    1.05e+02    0    8.99e+00
2005 09 14  0205    53627    7500      0    1.13e+02    0    8.89e+00
2005 09 14  0210    53627    7800      0    1.17e+02    0    9.06e+00
2005 09 14  0215    53627    8100      0    1.18e+02    0    1.03e+01
2005 09 14  0220    53627    8400      0    1.20e+02    0    9.21e+00
2005 09 14  0225    53627    8700      0    1.23e+02    0    1.04e+01
2005 09 14  0230    53627    9000      0    1.26e+02    0    1.08e+01
2005 09 14  0235    53627    9300      0    1.30e+02    0    1.04e+01
2005 09 14  0240    53627    9600      0    1.36e+02    0    1.10e+01
2005 09 14  0245    53627    9900      0    1.36e+02    0    1.11e+01
2005 09 14  0250    53627   10200      0    1.41e+02    0    1.13e+01
2005 09 14  0255    53627   10500      0    1.45e+02    0    1.17e+01
2005 09 14  0300    53627   10800      0    1.51e+02    0    1.10e+01
2005 09 14  0305    53627   11100      0    1.51e+02    0    1.13e+01
2005 09 14  0310    53627   11400      0    1.48e+02    0    1.20e+01
2005 09 14  0315    53627   11700      0    1.57e+02    0    1.21e+01
2005 09 14  0320    53627   12000      0    1.61e+02    0    1.28e+01
2005 09 14  0325    53627   12300      0    1.69e+02    0    1.22e+01
2005 09 14  0330    53627   12600      0    1.77e+02    0    1.30e+01
2005 09 14  0335    53627   12900      0    1.77e+02    0    1.45e+01
2005 09 14  0340    53627   13200      0    1.71e+02    0    1.41e+01
2005 09 14  0345    53627   13500      0    1.75e+02    0    1.36e+01
2005 09 14  0350    53627   13800      0    1.85e+02    0    1.36e+01
2005 09 14  0355    53627   14100      0    1.93e+02    0    1.39e+01
2005 09 14  0400    53627   14400      0    1.92e+02    0    1.41e+01
2005 09 14  0405    53627   14700      0    1.86e+02    0    1.44e+01
2005 09 14  0410    53627   15000      0    1.85e+02    0    1.39e+01
2005 09 14  0415    53627   15300      0    1.98e+02    0    1.43e+01
2005 09 14  0420    53627   15600      0    1.95e+02    0    1.51e+01
2005 09 14  0425    53627   15900      0    1.89e+02    0    1.51e+01
2005 09 14  0430    53627   16200      0    1.86e+02    0    1.58e+01
2005 09 14  0435    53627   16500      0    2.01e+02    0    1.52e+01
2005 09 14  0440    53627   16800      0    2.14e+02    0    1.61e+01
2005 09 14  0445    53627   17100      0    2.13e+02    0    1.67e+01
2005 09 14  0450    53627   17400      0    2.19e+02    0    1.73e+01
2005 09 14  0455    53627   17700      0    2.27e+02    0    1.75e+01
2005 09 14  0500    53627   18000      0    2.37e+02    0    1.80e+01
2005 09 14  0505    53627   18300      0    2.54e+02    0    1.83e+01
2005 09 14  0510    53627   18600      0    2.74e+02    0    1.90e+01
2005 09 14  0515    53627   18900      0    2.89e+02    0    2.10e+01
2005 09 14  0520    53627   19200      0    2.87e+02    0    2.10e+01
2005 09 14  0525    53627   19500      0    2.99e+02    0    2.23e+01
2005 09 14  0530    53627   19800      0    3.08e+02    0    2.28e+01
2005 09 14  0535    53627   20100      0    3.20e+02    0    2.37e+01
2005 09 14  0540    53627   20400      0    3.22e+02    0    2.49e+01
2005 09 14  0545    53627   20700      0    3.17e+02    0    2.34e+01
2005 09 14  0550    53627   21000      0    2.80e+02    0    2.02e+01
2005 09 14  0555    53627   21300      0    2.79e+02    0    2.06e+01
2005 09 14  0600    53627   21600      0    2.57e+02    0    2.04e+01
2005 09 14  0605    53627   21900      0    2.50e+02    0    1.98e+01
2005 09 14  0610    53627   22200      0    2.34e+02    0    2.01e+01
2005 09 14  0615    53627   22500      0    2.38e+02    0    1.91e+01
2005 09 14  0620    53627   22800      0    2.61e+02    0    2.11e+01
2005 09 14  0625    53627   23100      0    2.05e+02    0    1.74e+01
2005 09 14  0630    53627   23400      0    1.87e+02    0    1.60e+01
2005 09 14  0635    53627   23700      0    1.94e+02    0    1.60e+01
2005 09 14  0640    53627   24000      0    1.96e+02    0    1.65e+01
2005 09 14  0645    53627   24300      0    1.97e+02    0    1.75e+01
2005 09 14  0650    53627   24600      0    1.96e+02    0    1.66e+01
2005 09 14  0655    53627   24900      0    2.00e+02    0    1.62e+01
2005 09 14  0700    53627   25200      0    2.04e+02    0    1.58e+01
2005 09 14  0705    53627   25500      0    2.06e+02    0    1.63e+01
2005 09 14  0710    53627   25800      0    1.94e+02    0    1.52e+01
2005 09 14  0715    53627   26100      0    1.81e+02    0    1.70e+01
2005 09 14  0720    53627   26400      0    1.81e+02    0    1.56e+01
2005 09 14  0725    53627   26700      0    1.88e+02    0    1.66e+01
2005 09 14  0730    53627   27000      0    1.85e+02    0    1.74e+01
2005 09 14  0735    53627   27300      0    2.02e+02    0    1.73e+01
2005 09 14  0740    53627   27600      0    2.37e+02    0    1.93e+01
2005 09 14  0745    53627   27900      0    2.21e+02    0    1.76e+01
2005 09 14  0750    53627   28200      0    1.80e+02    0    1.52e+01
2005 09 14  0755    53627   28500      0    1.56e+02    0    1.37e+01
2005 09 14  0800    53627   28800      0    1.67e+02    0    1.38e+01
2005 09 14  0805    53627   29100      0    1.85e+02    0    1.41e+01
2005 09 14  0810    53627   29400      0    2.00e+02    0    1.62e+01
2005 09 14  0815    53627   29700      0    2.06e+02    0    1.61e+01
2005 09 14  0820    53627   30000      0    1.91e+02    0    1.67e+01
2005 09 14  0825    53627   30300      0    2.02e+02    0    1.67e+01
2005 09 14  0830    53627   30600      0    2.08e+02    0    1.65e+01
2005 09 14  0835    53627   30900      0    2.00e+02    0    1.76e+01
2005 09 14  0840    53627   31200      0    1.89e+02    0    1.60e+01
2005 09 14  0845    53627   31500      0    1.93e+02    0    1.61e+01
2005 09 14  0850    53627   31800      0    1.93e+02    0    1.60e+01
2005 09 14  0855    53627   32100      0    2.00e+02    0    1.57e+01
2005 09 14  0900    53627   32400      0    1.98e+02    0    1.48e+01
2005 09 14  0905    53627   32700      0    1.90e+02    0    1.60e+01
2005 09 14  0910    53627   33000      0    2.05e+02    0    1.49e+01
2005 09 14  0915    53627   33300      0    2.08e+02    0    1.61e+01
2005 09 14  0920    53627   33600      0    2.03e+02    0    1.62e+01
2005 09 14  0925    53627   33900      0    2.14e+02    0    1.75e+01
2005 09 14  0930    53627   34200      0    2.24e+02    0    1.75e+01
2005 09 14  0935    53627   34500      0    2.22e+02    0    1.82e+01
2005 09 14  0940    53627   34800      0    2.06e+02    0    1.71e+01
2005 09 14  0945    53627   35100      0    1.96e+02    0    1.56e+01
2005 09 14  0950    53627   35400      0    1.95e+02    0    1.56e+01
2005 09 14  0955    53627   35700      0    1.95e+02    0    1.56e+01
2005 09 14  1000    53627   36000      0    1.96e+02    0    1.52e+01
2005 09 14  1005    53627   36300      0    2.03e+02    0    1.69e+01
2005 09 14  1010    53627   36600      0    1.97e+02    0    1.53e+01
2005 09 14  1015    53627   36900      0    1.86e+02    0    1.41e+01
2005 09 14  1020    53627   37200      0    1.83e+02    0    1.46e+01
2005 09 14  1025    53627   37500      0    1.94e+02    0    1.47e+01
2005 09 14  1030    53627   37800      0    1.94e+02    0    1.42e+01
2005 09 14  1035    53627   38100      0    1.89e+02    0    1.53e+01
2005 09 14  1040    53627   38400      0    1.88e+02    0    1.43e+01
2005 09 14  1045    53627   38700      0    1.82e+02    0    1.42e+01
2005 09 14  1050    53627   39000      0    1.77e+02    0    1.28e+01
2005 09 14  1055    53627   39300      0    1.85e+02    0    1.38e+01
2005 09 14  1100    53627   39600      0    1.88e+02    0    1.46e+01
2005 09 14  1105    53627   39900      0    1.75e+02    0    1.43e+01
2005 09 14  1110    53627   40200      0    1.60e+02    0    1.26e+01
2005 09 14  1115    53627   40500      0    1.71e+02    0    1.30e+01
2005 09 14  1120    53627   40800      0    1.73e+02    0    1.32e+01
2005 09 14  1125    53627   41100      0    1.74e+02    0    1.43e+01
2005 09 14  1130    53627   41400      0    1.72e+02    0    1.39e+01
2005 09 14  1135    53627   41700      0    1.67e+02    0    1.41e+01
2005 09 14  1140    53627   42000      0    1.80e+02    0    1.40e+01
2005 09 14  1145    53627   42300      0    1.90e+02    0    1.36e+01
2005 09 14  1150    53627   42600      0    1.84e+02    0    1.47e+01
2005 09 14  1155    53627   42900      0    2.00e+02    0    1.59e+01
2005 09 14  1200    53627   43200      0    2.06e+02    0    1.55e+01
2005 09 14  1205    53627   43500      0    2.09e+02    0    1.68e+01
2005 09 14  1210    53627   43800      0    1.90e+02    0    1.47e+01
2005 09 14  1215    53627   44100      0    1.68e+02    0    1.37e+01
2005 09 14  1220    53627   44400      0    1.77e+02    0    1.43e+01
2005 09 14  1225    53627   44700      0    1.88e+02    0    1.47e+01
2005 09 14  1230    53627   45000      0    2.06e+02    0    1.60e+01
2005 09 14  1235    53627   45300      0    2.19e+02    0    1.63e+01
2005 09 14  1240    53627   45600      0    2.34e+02    0    1.83e+01
2005 09 14  1245    53627   45900      0    2.40e+02    0    1.78e+01
2005 09 14  1250    53627   46200      0    2.45e+02    0    1.74e+01
2005 09 14  1255    53627   46500      0    2.26e+02    0    1.58e+01
2005 09 14  1300    53627   46800      0    2.31e+02    0    1.71e+01
2005 09 14  1305    53627   47100      0    2.51e+02    0    1.89e+01
2005 09 14  1310    53627   47400      0    2.47e+02    0    1.83e+01
2005 09 14  1315    53627   47700      0    2.87e+02    0    1.87e+01
2005 09 14  1320    53627   48000      0    2.75e+02    0    1.98e+01
2005 09 14  1325    53627   48300      0    2.67e+02    0    1.84e+01
2005 09 14  1330    53627   48600      0    2.72e+02    0    1.91e+01
2005 09 14  1335    53627   48900      0    2.74e+02    0    1.96e+01
2005 09 14  1340    53627   49200      0    2.85e+02    0    1.86e+01
2005 09 14  1345    53627   49500      0    2.96e+02    0    1.99e+01
2005 09 14  1350    53627   49800      0    3.12e+02    0    2.05e+01
2005 09 14  1355    53627   50100      0    3.19e+02    0    2.39e+01
2005 09 14  1400    53627   50400      0    3.17e+02    0    2.25e+01
2005 09 14  1405    53627   50700      0    3.03e+02    0    2.05e+01
2005 09 14  1410    53627   51000      0    3.05e+02    0    2.06e+01
2005 09 14  1415    53627   51300      0    3.06e+02    0    2.14e+01
2005 09 14  1420    53627   51600      0    2.84e+02    0    1.82e+01
2005 09 14  1425    53627   51900      0    2.71e+02    0    1.95e+01
2005 09 14  1430    53627   52200      0    2.89e+02    0    1.77e+01
2005 09 14  1435    53627   52500      0    3.10e+02    0    1.90e+01
2005 09 14  1440    53627   52800      0    3.26e+02    0    2.05e+01
2005 09 14  1445    53627   53100      0    3.25e+02    0    2.07e+01
2005 09 14  1450    53627   53400      0    2.99e+02    0    1.89e+01
2005 09 14  1455    53627   53700      0    3.13e+02    0    2.02e+01
2005 09 14  1500    53627   54000      0    3.25e+02    0    2.20e+01
2005 09 14  1505    53627   54300      0    3.31e+02    0    1.95e+01
2005 09 14  1510    53627   54600      0    3.35e+02    0    1.93e+01
2005 09 14  1515    53627   54900      0    3.29e+02    0    2.15e+01
2005 09 14  1520    53627   55200      0    3.16e+02    0    1.92e+01
2005 09 14  1525    53627   55500      0    2.99e+02    0    1.94e+01
2005 09 14  1530    53627   55800      0    2.95e+02    0    1.99e+01
2005 09 14  1535    53627   56100      0    2.81e+02    0    1.80e+01
2005 09 14  1540    53627   56400      0    2.83e+02    0    1.70e+01
2005 09 14  1545    53627   56700      0    2.98e+02    0    2.04e+01
2005 09 14  1550    53627   57000      0    3.03e+02    0    1.83e+01
2005 09 14  1555    53627   57300      0    3.29e+02    0    1.97e+01
2005 09 14  1600    53627   57600      0    3.46e+02    0    1.93e+01
2005 09 14  1605    53627   57900      0    3.36e+02    0    2.02e+01
2005 09 14  1610    53627   58200      0    2.87e+02    0    1.81e+01
2005 09 14  1615    53627   58500      0    2.62e+02    0    1.77e+01
2005 09 14  1620    53627   58800      0    2.73e+02    0    1.69e+01
2005 09 14  1625    53627   59100      0    2.59e+02    0    1.66e+01
2005 09 14  1630    53627   59400      0    2.52e+02    0    1.61e+01
2005 09 14  1635    53627   59700      0    2.43e+02    0    1.57e+01
2005 09 14  1640    53627   60000      0    2.39e+02    0    1.57e+01
2005 09 14  1645    53627   60300      0    2.40e+02    0    1.51e+01
2005 09 14  1650    53627   60600      0    2.40e+02    0    1.54e+01
2005 09 14  1655    53627   60900      0    2.47e+02    0    1.44e+01
2005 09 14  1700    53627   61200      0    2.50e+02    0    1.49e+01
2005 09 14  1705    53627   61500      0    2.45e+02    0    1.51e+01
2005 09 14  1710    53627   61800      0    2.40e+02    0    1.49e+01
2005 09 14  1715    53627   62100      0    2.41e+02    0    1.60e+01
2005 09 14  1720    53627   62400      0    2.39e+02    0    1.58e+01
2005 09 14  1725    53627   62700      0    2.33e+02    0    1.42e+01
2005 09 14  1730    53627   63000      0    2.28e+02    0    1.31e+01
2005 09 14  1735    53627   63300      0    2.24e+02    0    1.33e+01
2005 09 14  1740    53627   63600      0    2.19e+02    0    1.27e+01
2005 09 14  1745    53627   63900      0    2.25e+02    0    1.32e+01
2005 09 14  1750    53627   64200      0    2.28e+02    0    1.46e+01
2005 09 14  1755    53627   64500      0    2.27e+02    0    1.35e+01
2005 09 14  1800    53627   64800      0    2.32e+02    0    1.28e+01
2005 09 14  1805    53627   65100      0    2.34e+02    0    1.38e+01
2005 09 14  1810    53627   65400      0    2.33e+02    0    1.28e+01
2005 09 14  1815    53627   65700      0    2.39e+02    0    1.35e+01
2005 09 14  1820    53627   66000      0    2.51e+02    0    1.41e+01
2005 09 14  1825    53627   66300      0    2.48e+02    0    1.45e+01
2005 09 14  1830    53627   66600      0    2.48e+02    0    1.40e+01
2005 09 14  1835    53627   66900      0    2.50e+02    0    1.50e+01
2005 09 14  1840    53627   67200      0    2.41e+02    0    1.42e+01
2005 09 14  1845    53627   67500      0    2.39e+02    0    1.39e+01
2005 09 14  1850    53627   67800      0    2.38e+02    0    1.31e+01
2005 09 14  1855    53627   68100      0    2.13e+02    0    1.24e+01
2005 09 14  1900    53627   68400      0    2.09e+02    0    1.20e+01
2005 09 14  1905    53627   68700      0    2.07e+02    0    1.14e+01
2005 09 14  1910    53627   69000      0    1.93e+02    0    1.02e+01
2005 09 14  1915    53627   69300      0    1.91e+02    0    1.14e+01
2005 09 14  1920    53627   69600      0    1.95e+02    0    1.13e+01
2005 09 14  1925    53627   69900      0    1.89e+02    0    1.09e+01
2005 09 14  1930    53627   70200      0    1.93e+02    0    1.08e+01
2005 09 14  1935    53627   70500      0    2.02e+02    0    1.28e+01
2005 09 14  1940    53627   70800      0    2.09e+02    0    1.24e+01
2005 09 14  1945    53627   71100      0    2.05e+02    0    1.02e+01
2005 09 14  1950    53627   71400      0    2.05e+02    0    1.15e+01
2005 09 14  1955    53627   71700      0    2.02e+02    0    1.02e+01
2005 09 14  2000    53627   72000      0    1.92e+02    0    1.09e+01
2005 09 14  2005    53627   72300      0    1.83e+02    0    1.01e+01
2005 09 14  2010    53627   72600      0    1.82e+02    0    1.01e+01
2005 09 14  2015    53627   72900      0    1.82e+02    0    1.08e+01
2005 09 14  2020    53627   73200      0    1.82e+02    0    1.01e+01
2005 09 14  2025    53627   73500      0    1.80e+02    0    1.07e+01
2005 09 14  2030    53627   73800      0    1.71e+02    0    1.04e+01
2005 09 14  2035    53627   74100      0    1.83e+02    0    1.05e+01
2005 09 14  2040    53627   74400      0    1.88e+02    0    1.05e+01
2005 09 14  2045    53627   74700      0    1.80e+02    0    9.75e+00
2005 09 14  2050    53627   75000      0    1.65e+02    0    9.45e+00
2005 09 14  2055    53627   75300      0    1.70e+02    0    1.03e+01
2005 09 14  2100    53627   75600      0    1.68e+02    0    9.86e+00
2005 09 14  2105    53627   75900      0    1.77e+02    0    9.33e+00
2005 09 14  2110    53627   76200      0    1.95e+02    0    9.53e+00
2005 09 14  2115    53627   76500      0    2.08e+02    0    1.05e+01
2005 09 14  2120    53627   76800      0    2.16e+02    0    1.06e+01
2005 09 14  2125    53627   77100      0    2.16e+02    0    1.04e+01
2005 09 14  2130    53627   77400      0    2.10e+02    0    9.87e+00
2005 09 14  2135    53627   77700      0    2.16e+02    0    1.17e+01
2005 09 14  2140    53627   78000      0    2.09e+02    0    1.07e+01
2005 09 14  2145    53627   78300      0    2.04e+02    0    1.16e+01
2005 09 14  2150    53627   78600      0    2.00e+02    0    1.02e+01
2005 09 14  2155    53627   78900      0    2.02e+02    0    9.46e+00
2005 09 14  2200    53627   79200      0    1.99e+02    0    9.41e+00
2005 09 14  2205    53627   79500      0    1.99e+02    0    9.01e+00
2005 09 14  2210    53627   79800      0    2.00e+02    0    9.99e+00
2005 09 14  2215    53627   80100      0    1.95e+02    0    1.04e+01
2005 09 14  2220    53627   80400      0    2.09e+02    0    9.76e+00
2005 09 14  2225    53627   80700      0    2.15e+02    0    1.11e+01
2005 09 14  2230    53627   81000      0    2.23e+02    0    1.02e+01
2005 09 14  2235    53627   81300      0    2.23e+02    0    9.53e+00
2005 09 14  2240    53627   81600      0    2.15e+02    0    9.91e+00
2005 09 14  2245    53627   81900      0    2.14e+02    0    9.27e+00
2005 09 14  2250    53627   82200      0    1.92e+02    0    8.66e+00
2005 09 14  2255    53627   82500      0    1.84e+02    0    9.21e+00
2005 09 14  2300    53627   82800      0    1.72e+02    0    8.48e+00
2005 09 14  2305    53627   83100      0    1.67e+02    0    8.75e+00
2005 09 14  2310    53627   83400      0    1.75e+02    0    8.98e+00
2005 09 14  2315    53627   83700      0    1.80e+02    0    8.94e+00
2005 09 14  2320    53627   84000      0    1.74e+02    0    9.09e+00
2005 09 14  2325    53627   84300      0    1.93e+02    0    8.36e+00
2005 09 14  2330    53627   84600      0    1.64e+02    0    7.93e+00
2005 09 14  2335    53627   84900      0    1.67e+02    0    8.22e+00
2005 09 14  2340    53627   85200      0    1.58e+02    0    8.37e+00
2005 09 14  2345    53627   85500      0    1.50e+02    0    7.92e+00
2005 09 14  2350    53627   85800      0    1.45e+02    0    8.37e+00
2005 09 14  2355    53627   86100      0    1.56e+02    0    8.39e+00
