:Data_list: 20050917_ace_sis_5m.txt
:Created: 2005 Sep 18 0011 UT
# Prepared by the U.S. Dept. of Commerce, NOAA, Space Environment Center.
# Please send comments and suggestions to SEC.Webmaster@noaa.gov 
# 
# Units: proton flux p/cs2-sec-ster
# Status(S): 0 = nominal data, 1 to 8 = bad data record, 9 = no data
# Missing data values: -1.00e+05
# Source: ACE Satellite - Solar Isotope Spectrometer
#
# 5-minute averaged Real-time Integral Flux of High-energy Solar Protons
# 
#                 Modified Seconds
# UT Date   Time   Julian  of the      ---- Integral Proton Flux ----
# YR MO DA  HHMM     Day     Day       S    > 10 MeV    S    > 30 MeV
#--------------------------------------------------------------------
2005 09 17  0000    53630       0      0    5.73e+00    0    1.35e+00
2005 09 17  0005    53630     300      0    5.63e+00    0    1.32e+00
2005 09 17  0010    53630     600      0    5.67e+00    0    1.29e+00
2005 09 17  0015    53630     900      0    5.75e+00    0    1.28e+00
2005 09 17  0020    53630    1200      0    5.64e+00    0    1.25e+00
2005 09 17  0025    53630    1500      0    5.60e+00    0    1.28e+00
2005 09 17  0030    53630    1800      0    5.59e+00    0    1.36e+00
2005 09 17  0035    53630    2100      0    5.42e+00    0    1.32e+00
2005 09 17  0040    53630    2400      0    5.39e+00    0    1.28e+00
2005 09 17  0045    53630    2700      0    5.46e+00    0    1.25e+00
2005 09 17  0050    53630    3000      0    5.50e+00    0    1.32e+00
2005 09 17  0055    53630    3300      0    5.47e+00    0    1.29e+00
2005 09 17  0100    53630    3600      0    5.47e+00    0    1.31e+00
2005 09 17  0105    53630    3900      0    5.40e+00    0    1.30e+00
2005 09 17  0110    53630    4200      0    5.52e+00    0    1.32e+00
2005 09 17  0115    53630    4500      0    5.47e+00    0    1.30e+00
2005 09 17  0120    53630    4800      0    5.44e+00    0    1.31e+00
2005 09 17  0125    53630    5100      0    5.53e+00    0    1.33e+00
2005 09 17  0130    53630    5400      0    5.65e+00    0    1.33e+00
2005 09 17  0135    53630    5700      0    5.68e+00    0    1.33e+00
2005 09 17  0140    53630    6000      0    5.79e+00    0    1.33e+00
2005 09 17  0145    53630    6300      0    5.93e+00    0    1.34e+00
2005 09 17  0150    53630    6600      0    6.12e+00    0    1.40e+00
2005 09 17  0155    53630    6900      0    6.12e+00    0    1.36e+00
2005 09 17  0200    53630    7200      0    5.84e+00    0    1.38e+00
2005 09 17  0205    53630    7500      0    5.87e+00    0    1.36e+00
2005 09 17  0210    53630    7800      0    5.98e+00    0    1.44e+00
2005 09 17  0215    53630    8100      0    5.74e+00    0    1.38e+00
2005 09 17  0220    53630    8400      0    5.74e+00    0    1.37e+00
2005 09 17  0225    53630    8700      0    6.00e+00    0    1.43e+00
2005 09 17  0230    53630    9000      0    5.89e+00    0    1.41e+00
2005 09 17  0235    53630    9300      0    5.57e+00    0    1.35e+00
2005 09 17  0240    53630    9600      0    5.87e+00    0    1.36e+00
2005 09 17  0245    53630    9900      0    5.89e+00    0    1.35e+00
2005 09 17  0250    53630   10200      0    5.97e+00    0    1.34e+00
2005 09 17  0255    53630   10500      0    6.22e+00    0    1.42e+00
2005 09 17  0300    53630   10800      0    6.23e+00    0    1.40e+00
2005 09 17  0305    53630   11100      0    6.06e+00    0    1.40e+00
2005 09 17  0310    53630   11400      0    6.07e+00    0    1.40e+00
2005 09 17  0315    53630   11700      0    6.10e+00    0    1.44e+00
2005 09 17  0320    53630   12000      0    6.17e+00    0    1.35e+00
2005 09 17  0325    53630   12300      0    6.13e+00    0    1.39e+00
2005 09 17  0330    53630   12600      0    5.98e+00    0    1.35e+00
2005 09 17  0335    53630   12900      0    5.87e+00    0    1.34e+00
2005 09 17  0340    53630   13200      0    6.04e+00    0    1.49e+00
2005 09 17  0345    53630   13500      0    5.89e+00    0    1.42e+00
2005 09 17  0350    53630   13800      0    5.67e+00    0    1.34e+00
2005 09 17  0355    53630   14100      0    5.67e+00    0    1.36e+00
2005 09 17  0400    53630   14400      0    5.66e+00    0    1.38e+00
2005 09 17  0405    53630   14700      0    5.53e+00    0    1.31e+00
2005 09 17  0410    53630   15000      0    5.51e+00    0    1.37e+00
2005 09 17  0415    53630   15300      0    5.54e+00    0    1.30e+00
2005 09 17  0420    53630   15600      0    5.65e+00    0    1.39e+00
2005 09 17  0425    53630   15900      0    5.65e+00    0    1.38e+00
2005 09 17  0430    53630   16200      0    5.74e+00    0    1.35e+00
2005 09 17  0435    53630   16500      0    5.94e+00    0    1.45e+00
2005 09 17  0440    53630   16800      0    5.67e+00    0    1.35e+00
2005 09 17  0445    53630   17100      0    6.01e+00    0    1.40e+00
2005 09 17  0450    53630   17400      0    5.99e+00    0    1.44e+00
2005 09 17  0455    53630   17700      0    6.02e+00    0    1.41e+00
2005 09 17  0500    53630   18000      0    5.76e+00    0    1.32e+00
2005 09 17  0505    53630   18300      0    5.76e+00    0    1.38e+00
2005 09 17  0510    53630   18600      0    5.79e+00    0    1.38e+00
2005 09 17  0515    53630   18900      0    5.77e+00    0    1.44e+00
2005 09 17  0520    53630   19200      0    5.75e+00    0    1.39e+00
2005 09 17  0525    53630   19500      0    5.58e+00    0    1.33e+00
2005 09 17  0530    53630   19800      0    5.75e+00    0    1.36e+00
2005 09 17  0535    53630   20100      0    5.82e+00    0    1.38e+00
2005 09 17  0540    53630   20400      0    5.81e+00    0    1.42e+00
2005 09 17  0545    53630   20700      0    5.75e+00    0    1.40e+00
2005 09 17  0550    53630   21000      0    5.74e+00    0    1.38e+00
2005 09 17  0555    53630   21300      0    5.71e+00    0    1.36e+00
2005 09 17  0600    53630   21600      0    5.67e+00    0    1.38e+00
2005 09 17  0605    53630   21900      0    5.77e+00    0    1.43e+00
2005 09 17  0610    53630   22200      0    5.60e+00    0    1.35e+00
2005 09 17  0615    53630   22500      0    5.39e+00    0    1.33e+00
2005 09 17  0620    53630   22800      0    5.37e+00    0    1.33e+00
2005 09 17  0625    53630   23100      0    5.31e+00    0    1.34e+00
2005 09 17  0630    53630   23400      0    5.34e+00    0    1.36e+00
2005 09 17  0635    53630   23700      0    5.25e+00    0    1.37e+00
2005 09 17  0640    53630   24000      0    5.27e+00    0    1.34e+00
2005 09 17  0645    53630   24300      0    5.34e+00    0    1.34e+00
2005 09 17  0650    53630   24600      0    5.36e+00    0    1.37e+00
2005 09 17  0655    53630   24900      0    5.46e+00    0    1.39e+00
2005 09 17  0700    53630   25200      0    5.40e+00    0    1.37e+00
2005 09 17  0705    53630   25500      0    5.48e+00    0    1.37e+00
2005 09 17  0710    53630   25800      0    5.51e+00    0    1.39e+00
2005 09 17  0715    53630   26100      0    5.65e+00    0    1.40e+00
2005 09 17  0720    53630   26400      0    5.33e+00    0    1.32e+00
2005 09 17  0725    53630   26700      0    5.63e+00    0    1.35e+00
2005 09 17  0730    53630   27000      0    5.70e+00    0    1.37e+00
2005 09 17  0735    53630   27300      0    5.71e+00    0    1.35e+00
2005 09 17  0740    53630   27600      0    5.67e+00    0    1.40e+00
2005 09 17  0745    53630   27900      0    5.80e+00    0    1.36e+00
2005 09 17  0750    53630   28200      0    5.89e+00    0    1.41e+00
2005 09 17  0755    53630   28500      0    5.86e+00    0    1.38e+00
2005 09 17  0800    53630   28800      0    5.83e+00    0    1.39e+00
2005 09 17  0805    53630   29100      0    5.79e+00    0    1.44e+00
2005 09 17  0810    53630   29400      0    5.68e+00    0    1.35e+00
2005 09 17  0815    53630   29700      0    5.68e+00    0    1.37e+00
2005 09 17  0820    53630   30000      0    5.62e+00    0    1.42e+00
2005 09 17  0825    53630   30300      0    5.54e+00    0    1.38e+00
2005 09 17  0830    53630   30600      0    5.52e+00    0    1.38e+00
2005 09 17  0835    53630   30900      0    5.75e+00    0    1.39e+00
2005 09 17  0840    53630   31200      0    5.86e+00    0    1.40e+00
2005 09 17  0845    53630   31500      0    5.81e+00    0    1.38e+00
2005 09 17  0850    53630   31800      0    5.83e+00    0    1.43e+00
2005 09 17  0855    53630   32100      0    5.86e+00    0    1.44e+00
2005 09 17  0900    53630   32400      0    5.63e+00    0    1.39e+00
2005 09 17  0905    53630   32700      0    5.69e+00    0    1.39e+00
2005 09 17  0910    53630   33000      0    5.83e+00    0    1.37e+00
2005 09 17  0915    53630   33300      0    5.80e+00    0    1.40e+00
2005 09 17  0920    53630   33600      0    5.71e+00    0    1.42e+00
2005 09 17  0925    53630   33900      0    5.68e+00    0    1.40e+00
2005 09 17  0930    53630   34200      0    5.56e+00    0    1.40e+00
2005 09 17  0935    53630   34500      0    5.66e+00    0    1.36e+00
2005 09 17  0940    53630   34800      0    5.51e+00    0    1.35e+00
2005 09 17  0945    53630   35100      0    5.54e+00    0    1.36e+00
2005 09 17  0950    53630   35400      0    5.56e+00    0    1.37e+00
2005 09 17  0955    53630   35700      0    5.49e+00    0    1.38e+00
2005 09 17  1000    53630   36000      0    5.59e+00    0    1.37e+00
2005 09 17  1005    53630   36300      0    5.69e+00    0    1.37e+00
2005 09 17  1010    53630   36600      0    5.64e+00    0    1.39e+00
2005 09 17  1015    53630   36900      0    5.59e+00    0    1.39e+00
2005 09 17  1020    53630   37200      0    5.48e+00    0    1.35e+00
2005 09 17  1025    53630   37500      0    5.81e+00    0    1.40e+00
2005 09 17  1030    53630   37800      0    5.75e+00    0    1.38e+00
2005 09 17  1035    53630   38100      0    5.78e+00    0    1.43e+00
2005 09 17  1040    53630   38400      0    5.77e+00    0    1.44e+00
2005 09 17  1045    53630   38700      0    5.80e+00    0    1.38e+00
2005 09 17  1050    53630   39000      0    5.85e+00    0    1.40e+00
2005 09 17  1055    53630   39300      0    5.94e+00    0    1.40e+00
2005 09 17  1100    53630   39600      0    5.76e+00    0    1.41e+00
2005 09 17  1105    53630   39900      0    5.77e+00    0    1.38e+00
2005 09 17  1110    53630   40200      0    6.01e+00    0    1.45e+00
2005 09 17  1115    53630   40500      0    5.98e+00    0    1.47e+00
2005 09 17  1120    53630   40800      0    5.92e+00    0    1.47e+00
2005 09 17  1125    53630   41100      0    5.71e+00    0    1.39e+00
2005 09 17  1130    53630   41400      0    5.82e+00    0    1.42e+00
2005 09 17  1135    53630   41700      0    5.78e+00    0    1.43e+00
2005 09 17  1140    53630   42000      0    5.86e+00    0    1.40e+00
2005 09 17  1145    53630   42300      0    5.64e+00    0    1.42e+00
2005 09 17  1150    53630   42600      0    5.45e+00    0    1.34e+00
2005 09 17  1155    53630   42900      0    5.56e+00    0    1.39e+00
2005 09 17  1200    53630   43200      0    5.52e+00    0    1.36e+00
2005 09 17  1205    53630   43500      0    5.46e+00    0    1.39e+00
2005 09 17  1210    53630   43800      0    5.42e+00    0    1.38e+00
2005 09 17  1215    53630   44100      0    5.48e+00    0    1.36e+00
2005 09 17  1220    53630   44400      0    5.64e+00    0    1.40e+00
2005 09 17  1225    53630   44700      0    5.71e+00    0    1.43e+00
2005 09 17  1230    53630   45000      0    5.52e+00    0    1.34e+00
2005 09 17  1235    53630   45300      0    5.60e+00    0    1.43e+00
2005 09 17  1240    53630   45600      0    5.45e+00    0    1.39e+00
2005 09 17  1245    53630   45900      0    5.42e+00    0    1.33e+00
2005 09 17  1250    53630   46200      0    5.32e+00    0    1.31e+00
2005 09 17  1255    53630   46500      0    5.28e+00    0    1.35e+00
2005 09 17  1300    53630   46800      0    5.09e+00    0    1.27e+00
2005 09 17  1305    53630   47100      0    5.15e+00    0    1.33e+00
2005 09 17  1310    53630   47400      0    5.21e+00    0    1.32e+00
2005 09 17  1315    53630   47700      0    5.23e+00    0    1.34e+00
2005 09 17  1320    53630   48000      0    5.21e+00    0    1.34e+00
2005 09 17  1325    53630   48300      0    5.21e+00    0    1.35e+00
2005 09 17  1330    53630   48600      0    5.08e+00    0    1.34e+00
2005 09 17  1335    53630   48900      0    5.12e+00    0    1.31e+00
2005 09 17  1340    53630   49200      0    5.34e+00    0    1.37e+00
2005 09 17  1345    53630   49500      0    5.44e+00    0    1.36e+00
2005 09 17  1350    53630   49800      0    5.49e+00    0    1.41e+00
2005 09 17  1355    53630   50100      0    5.46e+00    0    1.41e+00
2005 09 17  1400    53630   50400      0    5.36e+00    0    1.41e+00
2005 09 17  1405    53630   50700      0    5.49e+00    0    1.37e+00
2005 09 17  1410    53630   51000      0    5.53e+00    0    1.38e+00
2005 09 17  1415    53630   51300      0    5.36e+00    0    1.31e+00
2005 09 17  1420    53630   51600      0    5.53e+00    0    1.35e+00
2005 09 17  1425    53630   51900      0    5.64e+00    0    1.42e+00
2005 09 17  1430    53630   52200      0    5.49e+00    0    1.36e+00
2005 09 17  1435    53630   52500      0    5.58e+00    0    1.40e+00
2005 09 17  1440    53630   52800      0    5.67e+00    0    1.41e+00
2005 09 17  1445    53630   53100      0    5.54e+00    0    1.39e+00
2005 09 17  1450    53630   53400      0    5.52e+00    0    1.39e+00
2005 09 17  1455    53630   53700      0    5.35e+00    0    1.38e+00
2005 09 17  1500    53630   54000      0    5.27e+00    0    1.31e+00
2005 09 17  1505    53630   54300      0    5.26e+00    0    1.36e+00
2005 09 17  1510    53630   54600      0    5.20e+00    0    1.34e+00
2005 09 17  1515    53630   54900      0    5.00e+00    0    1.35e+00
2005 09 17  1520    53630   55200      0    4.92e+00    0    1.30e+00
2005 09 17  1525    53630   55500      0    4.92e+00    0    1.30e+00
2005 09 17  1530    53630   55800      0    5.03e+00    0    1.24e+00
2005 09 17  1535    53630   56100      0    5.07e+00    0    1.28e+00
2005 09 17  1540    53630   56400      0    5.20e+00    0    1.35e+00
2005 09 17  1545    53630   56700      0    5.12e+00    0    1.28e+00
2005 09 17  1550    53630   57000      0    4.93e+00    0    1.33e+00
2005 09 17  1555    53630   57300      0    5.01e+00    0    1.29e+00
2005 09 17  1600    53630   57600      0    5.00e+00    0    1.34e+00
2005 09 17  1605    53630   57900      0    4.96e+00    0    1.27e+00
2005 09 17  1610    53630   58200      0    5.02e+00    0    1.33e+00
2005 09 17  1615    53630   58500      0    4.98e+00    0    1.26e+00
2005 09 17  1620    53630   58800      0    5.06e+00    0    1.31e+00
2005 09 17  1625    53630   59100      0    5.24e+00    0    1.32e+00
2005 09 17  1630    53630   59400      0    4.98e+00    0    1.29e+00
2005 09 17  1635    53630   59700      0    5.03e+00    0    1.30e+00
2005 09 17  1640    53630   60000      0    5.08e+00    0    1.31e+00
2005 09 17  1645    53630   60300      0    5.17e+00    0    1.32e+00
2005 09 17  1650    53630   60600      0    5.14e+00    0    1.30e+00
2005 09 17  1655    53630   60900      0    5.23e+00    0    1.35e+00
2005 09 17  1700    53630   61200      0    5.09e+00    0    1.31e+00
2005 09 17  1705    53630   61500      0    4.98e+00    0    1.30e+00
2005 09 17  1710    53630   61800      0    5.06e+00    0    1.34e+00
2005 09 17  1715    53630   62100      0    4.94e+00    0    1.30e+00
2005 09 17  1720    53630   62400      0    5.04e+00    0    1.33e+00
2005 09 17  1725    53630   62700      0    4.98e+00    0    1.32e+00
2005 09 17  1730    53630   63000      0    4.99e+00    0    1.32e+00
2005 09 17  1735    53630   63300      0    5.03e+00    0    1.33e+00
2005 09 17  1740    53630   63600      0    5.02e+00    0    1.30e+00
2005 09 17  1745    53630   63900      0    4.96e+00    0    1.27e+00
2005 09 17  1750    53630   64200      0    5.10e+00    0    1.32e+00
2005 09 17  1755    53630   64500      0    5.11e+00    0    1.31e+00
2005 09 17  1800    53630   64800      0    4.97e+00    0    1.28e+00
2005 09 17  1805    53630   65100      0    4.91e+00    0    1.28e+00
2005 09 17  1810    53630   65400      0    4.92e+00    0    1.31e+00
2005 09 17  1815    53630   65700      0    4.88e+00    0    1.31e+00
2005 09 17  1820    53630   66000      0    4.84e+00    0    1.30e+00
2005 09 17  1825    53630   66300      0    4.87e+00    0    1.31e+00
2005 09 17  1830    53630   66600      0    4.90e+00    0    1.31e+00
2005 09 17  1835    53630   66900      0    4.83e+00    0    1.29e+00
2005 09 17  1840    53630   67200      0    4.75e+00    0    1.28e+00
2005 09 17  1845    53630   67500      0    4.77e+00    0    1.29e+00
2005 09 17  1850    53630   67800      0    4.85e+00    0    1.31e+00
2005 09 17  1855    53630   68100      0    4.84e+00    0    1.34e+00
2005 09 17  1900    53630   68400      0    4.85e+00    0    1.29e+00
2005 09 17  1905    53630   68700      0    4.81e+00    0    1.30e+00
2005 09 17  1910    53630   69000      0    4.96e+00    0    1.31e+00
2005 09 17  1915    53630   69300      0    4.97e+00    0    1.34e+00
2005 09 17  1920    53630   69600      0    4.90e+00    0    1.30e+00
2005 09 17  1925    53630   69900      0    4.84e+00    0    1.31e+00
2005 09 17  1930    53630   70200      0    4.91e+00    0    1.30e+00
2005 09 17  1935    53630   70500      0    4.98e+00    0    1.33e+00
2005 09 17  1940    53630   70800      0    4.84e+00    0    1.32e+00
2005 09 17  1945    53630   71100      0    4.78e+00    0    1.31e+00
2005 09 17  1950    53630   71400      0    4.75e+00    0    1.28e+00
2005 09 17  1955    53630   71700      0    4.64e+00    0    1.26e+00
2005 09 17  2000    53630   72000      0    4.63e+00    0    1.25e+00
2005 09 17  2005    53630   72300      0    4.63e+00    0    1.28e+00
2005 09 17  2010    53630   72600      0    4.64e+00    0    1.29e+00
2005 09 17  2015    53630   72900      0    4.61e+00    0    1.28e+00
2005 09 17  2020    53630   73200      0    4.72e+00    0    1.27e+00
2005 09 17  2025    53630   73500      0    4.78e+00    0    1.30e+00
2005 09 17  2030    53630   73800      0    4.82e+00    0    1.29e+00
2005 09 17  2035    53630   74100      0    4.65e+00    0    1.28e+00
2005 09 17  2040    53630   74400      0    4.72e+00    0    1.28e+00
2005 09 17  2045    53630   74700      0    4.72e+00    0    1.25e+00
2005 09 17  2050    53630   75000      0    4.74e+00    0    1.29e+00
2005 09 17  2055    53630   75300      0    4.94e+00    0    1.33e+00
2005 09 17  2100    53630   75600      0    4.80e+00    0    1.30e+00
2005 09 17  2105    53630   75900      0    4.78e+00    0    1.27e+00
2005 09 17  2110    53630   76200      0    4.91e+00    0    1.34e+00
2005 09 17  2115    53630   76500      0    4.97e+00    0    1.27e+00
2005 09 17  2120    53630   76800      0    4.87e+00    0    1.30e+00
2005 09 17  2125    53630   77100      0    5.03e+00    0    1.32e+00
2005 09 17  2130    53630   77400      0    5.05e+00    0    1.35e+00
2005 09 17  2135    53630   77700      0    5.01e+00    0    1.33e+00
2005 09 17  2140    53630   78000      0    4.90e+00    0    1.29e+00
2005 09 17  2145    53630   78300      0    4.88e+00    0    1.33e+00
2005 09 17  2150    53630   78600      0    4.70e+00    0    1.29e+00
2005 09 17  2155    53630   78900      0    4.70e+00    0    1.32e+00
2005 09 17  2200    53630   79200      0    4.75e+00    0    1.29e+00
2005 09 17  2205    53630   79500      0    4.74e+00    0    1.30e+00
2005 09 17  2210    53630   79800      0    4.77e+00    0    1.27e+00
2005 09 17  2215    53630   80100      0    4.83e+00    0    1.30e+00
2005 09 17  2220    53630   80400      0    4.63e+00    0    1.28e+00
2005 09 17  2225    53630   80700      0    4.75e+00    0    1.33e+00
2005 09 17  2230    53630   81000      0    4.66e+00    0    1.26e+00
2005 09 17  2235    53630   81300      0    4.62e+00    0    1.26e+00
2005 09 17  2240    53630   81600      0    4.62e+00    0    1.26e+00
2005 09 17  2245    53630   81900      0    4.63e+00    0    1.27e+00
2005 09 17  2250    53630   82200      0    4.66e+00    0    1.28e+00
2005 09 17  2255    53630   82500      0    4.61e+00    0    1.29e+00
2005 09 17  2300    53630   82800      0    4.63e+00    0    1.28e+00
2005 09 17  2305    53630   83100      0    4.50e+00    0    1.23e+00
2005 09 17  2310    53630   83400      0    4.63e+00    0    1.25e+00
2005 09 17  2315    53630   83700      0    4.59e+00    0    1.29e+00
2005 09 17  2320    53630   84000      0    4.61e+00    0    1.27e+00
2005 09 17  2325    53630   84300      0    4.47e+00    0    1.25e+00
2005 09 17  2330    53630   84600      0    4.33e+00    0    1.22e+00
2005 09 17  2335    53630   84900      0    4.47e+00    0    1.23e+00
2005 09 17  2340    53630   85200      0    4.66e+00    0    1.29e+00
2005 09 17  2345    53630   85500      0    4.66e+00    0    1.28e+00
2005 09 17  2350    53630   85800      0    4.61e+00    0    1.28e+00
2005 09 17  2355    53630   86100      0    4.66e+00    0    1.25e+00
