:Data_list: 20061128_ace_sis_5m.txt
:Created: 2006 Nov 29 0011 UT
# Prepared by the U.S. Dept. of Commerce, NOAA, Space Environment Center.
# Please send comments and suggestions to SEC.Webmaster@noaa.gov 
# 
# Units: proton flux p/cs2-sec-ster
# Status(S): 0 = nominal data, 1 to 8 = bad data record, 9 = no data
# Missing data values: -1.00e+05
# Source: ACE Satellite - Solar Isotope Spectrometer
#
# 5-minute averaged Real-time Integral Flux of High-energy Solar Protons
# 
#                 Modified Seconds
# UT Date   Time   Julian  of the      ---- Integral Proton Flux ----
# YR MO DA  HHMM     Day     Day       S    > 10 MeV    S    > 30 MeV
#--------------------------------------------------------------------
2006 11 28  0000    54067       0      0    1.72e+00    0    1.19e+00
2006 11 28  0005    54067     300      0    1.73e+00    0    1.21e+00
2006 11 28  0010    54067     600      0    1.68e+00    0    1.17e+00
2006 11 28  0015    54067     900      0    1.68e+00    0    1.18e+00
2006 11 28  0020    54067    1200      0    1.69e+00    0    1.18e+00
2006 11 28  0025    54067    1500      0    1.69e+00    0    1.19e+00
2006 11 28  0030    54067    1800      0    1.69e+00    0    1.18e+00
2006 11 28  0035    54067    2100      0    1.69e+00    0    1.18e+00
2006 11 28  0040    54067    2400      0    1.71e+00    0    1.20e+00
2006 11 28  0045    54067    2700      0    1.70e+00    0    1.20e+00
2006 11 28  0050    54067    3000      0    1.70e+00    0    1.20e+00
2006 11 28  0055    54067    3300      0    1.73e+00    0    1.22e+00
2006 11 28  0100    54067    3600      0    1.69e+00    0    1.20e+00
2006 11 28  0105    54067    3900      0    1.70e+00    0    1.19e+00
2006 11 28  0110    54067    4200      0    1.73e+00    0    1.20e+00
2006 11 28  0115    54067    4500      0    1.68e+00    0    1.17e+00
2006 11 28  0120    54067    4800      0    1.71e+00    0    1.20e+00
2006 11 28  0125    54067    5100      0    1.70e+00    0    1.19e+00
2006 11 28  0130    54067    5400      0    1.69e+00    0    1.18e+00
2006 11 28  0135    54067    5700      0    1.70e+00    0    1.19e+00
2006 11 28  0140    54067    6000      0    1.72e+00    0    1.21e+00
2006 11 28  0145    54067    6300      0    1.67e+00    0    1.17e+00
2006 11 28  0150    54067    6600      0    1.71e+00    0    1.20e+00
2006 11 28  0155    54067    6900      0    1.73e+00    0    1.21e+00
2006 11 28  0200    54067    7200      0    1.72e+00    0    1.20e+00
2006 11 28  0205    54067    7500      0    1.70e+00    0    1.20e+00
2006 11 28  0210    54067    7800      0    1.72e+00    0    1.21e+00
2006 11 28  0215    54067    8100      0    1.77e+00    0    1.24e+00
2006 11 28  0220    54067    8400      0    1.74e+00    0    1.22e+00
2006 11 28  0225    54067    8700      0    1.75e+00    0    1.23e+00
2006 11 28  0230    54067    9000      0    1.72e+00    0    1.19e+00
2006 11 28  0235    54067    9300      0    1.74e+00    0    1.22e+00
2006 11 28  0240    54067    9600      0    1.74e+00    0    1.23e+00
2006 11 28  0245    54067    9900      0    1.73e+00    0    1.21e+00
2006 11 28  0250    54067   10200      0    1.71e+00    0    1.19e+00
2006 11 28  0255    54067   10500      0    1.68e+00    0    1.17e+00
2006 11 28  0300    54067   10800      0    1.75e+00    0    1.23e+00
2006 11 28  0305    54067   11100      0    1.74e+00    0    1.23e+00
2006 11 28  0310    54067   11400      0    1.75e+00    0    1.23e+00
2006 11 28  0315    54067   11700      0    1.75e+00    0    1.22e+00
2006 11 28  0320    54067   12000      0    1.74e+00    0    1.21e+00
2006 11 28  0325    54067   12300      0    1.69e+00    0    1.18e+00
2006 11 28  0330    54067   12600      0    1.77e+00    0    1.24e+00
2006 11 28  0335    54067   12900      0    1.75e+00    0    1.22e+00
2006 11 28  0340    54067   13200      0    1.75e+00    0    1.23e+00
2006 11 28  0345    54067   13500      0    1.75e+00    0    1.23e+00
2006 11 28  0350    54067   13800      0    1.72e+00    0    1.21e+00
2006 11 28  0355    54067   14100      0    1.76e+00    0    1.24e+00
2006 11 28  0400    54067   14400      0    1.74e+00    0    1.22e+00
2006 11 28  0405    54067   14700      0    1.74e+00    0    1.22e+00
2006 11 28  0410    54067   15000      0    1.69e+00    0    1.18e+00
2006 11 28  0415    54067   15300      0    1.74e+00    0    1.21e+00
2006 11 28  0420    54067   15600      0    1.76e+00    0    1.23e+00
2006 11 28  0425    54067   15900      0    1.74e+00    0    1.22e+00
2006 11 28  0430    54067   16200      0    1.70e+00    0    1.21e+00
2006 11 28  0435    54067   16500      0    1.80e+00    0    1.27e+00
2006 11 28  0440    54067   16800      0    1.74e+00    0    1.22e+00
2006 11 28  0445    54067   17100      0    1.74e+00    0    1.22e+00
2006 11 28  0450    54067   17400      0    1.73e+00    0    1.21e+00
2006 11 28  0455    54067   17700      0    1.77e+00    0    1.24e+00
2006 11 28  0500    54067   18000      0    1.73e+00    0    1.22e+00
2006 11 28  0505    54067   18300      0    1.71e+00    0    1.19e+00
2006 11 28  0510    54067   18600      0    1.77e+00    0    1.24e+00
2006 11 28  0515    54067   18900      0    1.69e+00    0    1.20e+00
2006 11 28  0520    54067   19200      0    1.73e+00    0    1.22e+00
2006 11 28  0525    54067   19500      0    1.73e+00    0    1.21e+00
2006 11 28  0530    54067   19800      0    1.76e+00    0    1.25e+00
2006 11 28  0535    54067   20100      0    1.72e+00    0    1.20e+00
2006 11 28  0540    54067   20400      0    1.78e+00    0    1.25e+00
2006 11 28  0545    54067   20700      0    1.77e+00    0    1.25e+00
2006 11 28  0550    54067   21000      0    1.71e+00    0    1.19e+00
2006 11 28  0555    54067   21300      0    1.74e+00    0    1.22e+00
2006 11 28  0600    54067   21600      0    1.75e+00    0    1.21e+00
2006 11 28  0605    54067   21900      0    1.72e+00    0    1.19e+00
2006 11 28  0610    54067   22200      0    1.75e+00    0    1.23e+00
2006 11 28  0615    54067   22500      0    1.77e+00    0    1.24e+00
2006 11 28  0620    54067   22800      0    1.69e+00    0    1.19e+00
2006 11 28  0625    54067   23100      0    1.73e+00    0    1.20e+00
2006 11 28  0630    54067   23400      0    1.71e+00    0    1.21e+00
2006 11 28  0635    54067   23700      0    1.76e+00    0    1.23e+00
2006 11 28  0640    54067   24000      0    1.73e+00    0    1.21e+00
2006 11 28  0645    54067   24300      0    1.69e+00    0    1.18e+00
2006 11 28  0650    54067   24600      0    1.69e+00    0    1.18e+00
2006 11 28  0655    54067   24900      0    1.75e+00    0    1.23e+00
2006 11 28  0700    54067   25200      0    1.72e+00    0    1.20e+00
2006 11 28  0705    54067   25500      0    1.73e+00    0    1.23e+00
2006 11 28  0710    54067   25800      0    1.76e+00    0    1.24e+00
2006 11 28  0715    54067   26100      0    1.77e+00    0    1.24e+00
2006 11 28  0720    54067   26400      0    1.74e+00    0    1.22e+00
2006 11 28  0725    54067   26700      0    1.69e+00    0    1.17e+00
2006 11 28  0730    54067   27000      0    1.73e+00    0    1.21e+00
2006 11 28  0735    54067   27300      0    1.73e+00    0    1.20e+00
2006 11 28  0740    54067   27600      0    1.72e+00    0    1.21e+00
2006 11 28  0745    54067   27900      0    1.71e+00    0    1.19e+00
2006 11 28  0750    54067   28200      0    1.77e+00    0    1.26e+00
2006 11 28  0755    54067   28500      0    1.74e+00    0    1.21e+00
2006 11 28  0800    54067   28800      0    1.76e+00    0    1.23e+00
2006 11 28  0805    54067   29100      0    1.74e+00    0    1.21e+00
2006 11 28  0810    54067   29400      0    1.75e+00    0    1.24e+00
2006 11 28  0815    54067   29700      0    1.77e+00    0    1.24e+00
2006 11 28  0820    54067   30000      0    1.70e+00    0    1.19e+00
2006 11 28  0825    54067   30300      0    1.73e+00    0    1.23e+00
2006 11 28  0830    54067   30600      0    1.71e+00    0    1.19e+00
2006 11 28  0835    54067   30900      0    1.73e+00    0    1.22e+00
2006 11 28  0840    54067   31200      0    1.75e+00    0    1.22e+00
2006 11 28  0845    54067   31500      0    1.74e+00    0    1.22e+00
2006 11 28  0850    54067   31800      0    1.73e+00    0    1.21e+00
2006 11 28  0855    54067   32100      0    1.72e+00    0    1.20e+00
2006 11 28  0900    54067   32400      0    1.74e+00    0    1.22e+00
2006 11 28  0905    54067   32700      0    1.72e+00    0    1.20e+00
2006 11 28  0910    54067   33000      0    1.72e+00    0    1.22e+00
2006 11 28  0915    54067   33300      0    1.71e+00    0    1.20e+00
2006 11 28  0920    54067   33600      0    1.74e+00    0    1.22e+00
2006 11 28  0925    54067   33900      0    1.72e+00    0    1.20e+00
2006 11 28  0930    54067   34200      0    1.72e+00    0    1.19e+00
2006 11 28  0935    54067   34500      0    1.75e+00    0    1.23e+00
2006 11 28  0940    54067   34800      0    1.73e+00    0    1.21e+00
2006 11 28  0945    54067   35100      0    1.71e+00    0    1.19e+00
2006 11 28  0950    54067   35400      0    1.75e+00    0    1.23e+00
2006 11 28  0955    54067   35700      0    1.75e+00    0    1.22e+00
2006 11 28  1000    54067   36000      0    1.74e+00    0    1.22e+00
2006 11 28  1005    54067   36300      0    1.74e+00    0    1.21e+00
2006 11 28  1010    54067   36600      0    1.75e+00    0    1.23e+00
2006 11 28  1015    54067   36900      0    1.76e+00    0    1.23e+00
2006 11 28  1020    54067   37200      0    1.75e+00    0    1.23e+00
2006 11 28  1025    54067   37500      0    1.72e+00    0    1.20e+00
2006 11 28  1030    54067   37800      0    1.74e+00    0    1.21e+00
2006 11 28  1035    54067   38100      0    1.76e+00    0    1.23e+00
2006 11 28  1040    54067   38400      0    1.73e+00    0    1.21e+00
2006 11 28  1045    54067   38700      0    1.74e+00    0    1.20e+00
2006 11 28  1050    54067   39000      0    1.77e+00    0    1.24e+00
2006 11 28  1055    54067   39300      0    1.72e+00    0    1.22e+00
2006 11 28  1100    54067   39600      0    1.76e+00    0    1.22e+00
2006 11 28  1105    54067   39900      0    1.74e+00    0    1.22e+00
2006 11 28  1110    54067   40200      0    1.74e+00    0    1.21e+00
2006 11 28  1115    54067   40500      0    1.75e+00    0    1.24e+00
2006 11 28  1120    54067   40800      0    1.72e+00    0    1.20e+00
2006 11 28  1125    54067   41100      0    1.74e+00    0    1.22e+00
2006 11 28  1130    54067   41400      0    1.74e+00    0    1.22e+00
2006 11 28  1135    54067   41700      0    1.75e+00    0    1.24e+00
2006 11 28  1140    54067   42000      0    1.75e+00    0    1.23e+00
2006 11 28  1145    54067   42300      0    1.69e+00    0    1.19e+00
2006 11 28  1150    54067   42600      0    1.76e+00    0    1.24e+00
2006 11 28  1155    54067   42900      0    1.74e+00    0    1.22e+00
2006 11 28  1200    54067   43200      0    1.76e+00    0    1.23e+00
2006 11 28  1205    54067   43500      0    1.70e+00    0    1.21e+00
2006 11 28  1210    54067   43800      0    1.76e+00    0    1.24e+00
2006 11 28  1215    54067   44100      0    1.77e+00    0    1.24e+00
2006 11 28  1220    54067   44400      0    1.75e+00    0    1.23e+00
2006 11 28  1225    54067   44700      0    1.74e+00    0    1.21e+00
2006 11 28  1230    54067   45000      0    1.73e+00    0    1.22e+00
2006 11 28  1235    54067   45300      0    1.75e+00    0    1.23e+00
2006 11 28  1240    54067   45600      0    1.76e+00    0    1.23e+00
2006 11 28  1245    54067   45900      0    1.72e+00    0    1.19e+00
2006 11 28  1250    54067   46200      0    1.77e+00    0    1.24e+00
2006 11 28  1255    54067   46500      0    1.77e+00    0    1.25e+00
2006 11 28  1300    54067   46800      0    1.72e+00    0    1.21e+00
2006 11 28  1305    54067   47100      0    1.75e+00    0    1.23e+00
2006 11 28  1310    54067   47400      0    1.75e+00    0    1.22e+00
2006 11 28  1315    54067   47700      0    1.75e+00    0    1.22e+00
2006 11 28  1320    54067   48000      0    1.77e+00    0    1.24e+00
2006 11 28  1325    54067   48300      0    1.72e+00    0    1.20e+00
2006 11 28  1330    54067   48600      0    1.79e+00    0    1.25e+00
2006 11 28  1335    54067   48900      0    1.77e+00    0    1.25e+00
2006 11 28  1340    54067   49200      0    1.74e+00    0    1.22e+00
2006 11 28  1345    54067   49500      0    1.66e+00    0    1.15e+00
2006 11 28  1350    54067   49800      0    1.77e+00    0    1.23e+00
2006 11 28  1355    54067   50100      0    1.79e+00    0    1.25e+00
2006 11 28  1400    54067   50400      0    1.78e+00    0    1.25e+00
2006 11 28  1405    54067   50700      0    1.80e+00    0    1.27e+00
2006 11 28  1410    54067   51000      0    1.71e+00    0    1.21e+00
2006 11 28  1415    54067   51300      0    1.70e+00    0    1.19e+00
2006 11 28  1420    54067   51600      0    1.73e+00    0    1.22e+00
2006 11 28  1425    54067   51900      0    1.74e+00    0    1.21e+00
2006 11 28  1430    54067   52200      0    1.72e+00    0    1.20e+00
2006 11 28  1435    54067   52500      0    1.71e+00    0    1.22e+00
2006 11 28  1440    54067   52800      0    1.71e+00    0    1.21e+00
2006 11 28  1445    54067   53100      0    1.72e+00    0    1.20e+00
2006 11 28  1450    54067   53400      0    1.75e+00    0    1.24e+00
2006 11 28  1455    54067   53700      0    1.72e+00    0    1.21e+00
2006 11 28  1500    54067   54000      0    1.70e+00    0    1.19e+00
2006 11 28  1505    54067   54300      0    1.71e+00    0    1.19e+00
2006 11 28  1510    54067   54600      0    1.74e+00    0    1.24e+00
2006 11 28  1515    54067   54900      0    1.70e+00    0    1.19e+00
2006 11 28  1520    54067   55200      0    1.71e+00    0    1.20e+00
2006 11 28  1525    54067   55500      0    1.70e+00    0    1.19e+00
2006 11 28  1530    54067   55800      0    1.70e+00    0    1.20e+00
2006 11 28  1535    54067   56100      0    1.73e+00    0    1.21e+00
2006 11 28  1540    54067   56400      0    1.72e+00    0    1.21e+00
2006 11 28  1545    54067   56700      0    1.69e+00    0    1.20e+00
2006 11 28  1550    54067   57000      0    1.69e+00    0    1.18e+00
2006 11 28  1555    54067   57300      0    1.74e+00    0    1.23e+00
2006 11 28  1600    54067   57600      0    1.75e+00    0    1.23e+00
2006 11 28  1605    54067   57900      0    1.73e+00    0    1.21e+00
2006 11 28  1610    54067   58200      0    1.70e+00    0    1.18e+00
2006 11 28  1615    54067   58500      0    1.71e+00    0    1.20e+00
2006 11 28  1620    54067   58800      0    1.75e+00    0    1.23e+00
2006 11 28  1625    54067   59100      0    1.71e+00    0    1.20e+00
2006 11 28  1630    54067   59400      0    1.68e+00    0    1.17e+00
2006 11 28  1635    54067   59700      0    1.72e+00    0    1.20e+00
2006 11 28  1640    54067   60000      0    1.69e+00    0    1.18e+00
2006 11 28  1645    54067   60300      0    1.72e+00    0    1.22e+00
2006 11 28  1650    54067   60600      0    1.73e+00    0    1.22e+00
2006 11 28  1655    54067   60900      0    1.71e+00    0    1.21e+00
2006 11 28  1700    54067   61200      0    1.77e+00    0    1.25e+00
2006 11 28  1705    54067   61500      0    1.73e+00    0    1.21e+00
2006 11 28  1710    54067   61800      0    1.74e+00    0    1.21e+00
2006 11 28  1715    54067   62100      0    1.72e+00    0    1.20e+00
2006 11 28  1720    54067   62400      0    1.73e+00    0    1.21e+00
2006 11 28  1725    54067   62700      0    1.76e+00    0    1.23e+00
2006 11 28  1730    54067   63000      0    1.71e+00    0    1.20e+00
2006 11 28  1735    54067   63300      0    1.74e+00    0    1.23e+00
2006 11 28  1740    54067   63600      0    1.75e+00    0    1.22e+00
2006 11 28  1745    54067   63900      0    1.73e+00    0    1.21e+00
2006 11 28  1750    54067   64200      0    1.75e+00    0    1.23e+00
2006 11 28  1755    54067   64500      0    1.70e+00    0    1.19e+00
2006 11 28  1800    54067   64800      9   -1.00e+05    9   -1.00e+05
2006 11 28  1805    54067   65100      9   -1.00e+05    9   -1.00e+05
2006 11 28  1810    54067   65400      9   -1.00e+05    9   -1.00e+05
2006 11 28  1815    54067   65700      9   -1.00e+05    9   -1.00e+05
2006 11 28  1820    54067   66000      9   -1.00e+05    9   -1.00e+05
2006 11 28  1825    54067   66300      9   -1.00e+05    9   -1.00e+05
2006 11 28  1830    54067   66600      9   -1.00e+05    9   -1.00e+05
2006 11 28  1835    54067   66900      9   -1.00e+05    9   -1.00e+05
2006 11 28  1840    54067   67200      9   -1.00e+05    9   -1.00e+05
2006 11 28  1845    54067   67500      9   -1.00e+05    9   -1.00e+05
2006 11 28  1850    54067   67800      9   -1.00e+05    9   -1.00e+05
2006 11 28  1855    54067   68100      9   -1.00e+05    9   -1.00e+05
2006 11 28  1900    54067   68400      9   -1.00e+05    9   -1.00e+05
2006 11 28  1905    54067   68700      9   -1.00e+05    9   -1.00e+05
2006 11 28  1910    54067   69000      9   -1.00e+05    9   -1.00e+05
2006 11 28  1915    54067   69300      9   -1.00e+05    9   -1.00e+05
2006 11 28  1920    54067   69600      9   -1.00e+05    9   -1.00e+05
2006 11 28  1925    54067   69900      9   -1.00e+05    9   -1.00e+05
2006 11 28  1930    54067   70200      9   -1.00e+05    9   -1.00e+05
2006 11 28  1935    54067   70500      9   -1.00e+05    9   -1.00e+05
2006 11 28  1940    54067   70800      9   -1.00e+05    9   -1.00e+05
2006 11 28  1945    54067   71100      9   -1.00e+05    9   -1.00e+05
2006 11 28  1950    54067   71400      9   -1.00e+05    9   -1.00e+05
2006 11 28  1955    54067   71700      9   -1.00e+05    9   -1.00e+05
2006 11 28  2000    54067   72000      9   -1.00e+05    9   -1.00e+05
2006 11 28  2005    54067   72300      9   -1.00e+05    9   -1.00e+05
2006 11 28  2010    54067   72600      9   -1.00e+05    9   -1.00e+05
2006 11 28  2015    54067   72900      9   -1.00e+05    9   -1.00e+05
2006 11 28  2020    54067   73200      9   -1.00e+05    9   -1.00e+05
2006 11 28  2025    54067   73500      9   -1.00e+05    9   -1.00e+05
2006 11 28  2030    54067   73800      9   -1.00e+05    9   -1.00e+05
2006 11 28  2035    54067   74100      9   -1.00e+05    9   -1.00e+05
2006 11 28  2040    54067   74400      9   -1.00e+05    9   -1.00e+05
2006 11 28  2045    54067   74700      9   -1.00e+05    9   -1.00e+05
2006 11 28  2050    54067   75000      9   -1.00e+05    9   -1.00e+05
2006 11 28  2055    54067   75300      9   -1.00e+05    9   -1.00e+05
2006 11 28  2100    54067   75600      9   -1.00e+05    9   -1.00e+05
2006 11 28  2105    54067   75900      9   -1.00e+05    9   -1.00e+05
2006 11 28  2110    54067   76200      9   -1.00e+05    9   -1.00e+05
2006 11 28  2115    54067   76500      9   -1.00e+05    9   -1.00e+05
2006 11 28  2120    54067   76800      9   -1.00e+05    9   -1.00e+05
2006 11 28  2125    54067   77100      9   -1.00e+05    9   -1.00e+05
2006 11 28  2130    54067   77400      9   -1.00e+05    9   -1.00e+05
2006 11 28  2135    54067   77700      9   -1.00e+05    9   -1.00e+05
2006 11 28  2140    54067   78000      9   -1.00e+05    9   -1.00e+05
2006 11 28  2145    54067   78300      9   -1.00e+05    9   -1.00e+05
2006 11 28  2150    54067   78600      9   -1.00e+05    9   -1.00e+05
2006 11 28  2155    54067   78900      9   -1.00e+05    9   -1.00e+05
2006 11 28  2200    54067   79200      9   -1.00e+05    9   -1.00e+05
2006 11 28  2205    54067   79500      9   -1.00e+05    9   -1.00e+05
2006 11 28  2210    54067   79800      9   -1.00e+05    9   -1.00e+05
2006 11 28  2215    54067   80100      9   -1.00e+05    9   -1.00e+05
2006 11 28  2220    54067   80400      9   -1.00e+05    9   -1.00e+05
2006 11 28  2225    54067   80700      9   -1.00e+05    9   -1.00e+05
2006 11 28  2230    54067   81000      9   -1.00e+05    9   -1.00e+05
2006 11 28  2235    54067   81300      9   -1.00e+05    9   -1.00e+05
2006 11 28  2240    54067   81600      9   -1.00e+05    9   -1.00e+05
2006 11 28  2245    54067   81900      9   -1.00e+05    9   -1.00e+05
2006 11 28  2250    54067   82200      9   -1.00e+05    9   -1.00e+05
2006 11 28  2255    54067   82500      9   -1.00e+05    9   -1.00e+05
2006 11 28  2300    54067   82800      9   -1.00e+05    9   -1.00e+05
2006 11 28  2305    54067   83100      9   -1.00e+05    9   -1.00e+05
2006 11 28  2310    54067   83400      9   -1.00e+05    9   -1.00e+05
2006 11 28  2315    54067   83700      9   -1.00e+05    9   -1.00e+05
2006 11 28  2320    54067   84000      9   -1.00e+05    9   -1.00e+05
2006 11 28  2325    54067   84300      9   -1.00e+05    9   -1.00e+05
2006 11 28  2330    54067   84600      9   -1.00e+05    9   -1.00e+05
2006 11 28  2335    54067   84900      9   -1.00e+05    9   -1.00e+05
2006 11 28  2340    54067   85200      9   -1.00e+05    9   -1.00e+05
2006 11 28  2345    54067   85500      9   -1.00e+05    9   -1.00e+05
2006 11 28  2350    54067   85800      9   -1.00e+05    9   -1.00e+05
2006 11 28  2355    54067   86100      9   -1.00e+05    9   -1.00e+05
