:Data_list: 20060928_ace_sis_5m.txt
:Created: 2006 Sep 29 0011 UT
# Prepared by the U.S. Dept. of Commerce, NOAA, Space Environment Center.
# Please send comments and suggestions to SEC.Webmaster@noaa.gov 
# 
# Units: proton flux p/cs2-sec-ster
# Status(S): 0 = nominal data, 1 to 8 = bad data record, 9 = no data
# Missing data values: -1.00e+05
# Source: ACE Satellite - Solar Isotope Spectrometer
#
# 5-minute averaged Real-time Integral Flux of High-energy Solar Protons
# 
#                 Modified Seconds
# UT Date   Time   Julian  of the      ---- Integral Proton Flux ----
# YR MO DA  HHMM     Day     Day       S    > 10 MeV    S    > 30 MeV
#--------------------------------------------------------------------
2006 09 28  0000    54006       0      0    1.64e+00    0    1.16e+00
2006 09 28  0005    54006     300      0    1.67e+00    0    1.18e+00
2006 09 28  0010    54006     600      0    1.68e+00    0    1.19e+00
2006 09 28  0015    54006     900      0    1.66e+00    0    1.17e+00
2006 09 28  0020    54006    1200      0    1.68e+00    0    1.17e+00
2006 09 28  0025    54006    1500      0    1.67e+00    0    1.17e+00
2006 09 28  0030    54006    1800      0    1.68e+00    0    1.18e+00
2006 09 28  0035    54006    2100      0    1.69e+00    0    1.18e+00
2006 09 28  0040    54006    2400      0    1.66e+00    0    1.16e+00
2006 09 28  0045    54006    2700      0    1.68e+00    0    1.18e+00
2006 09 28  0050    54006    3000      0    1.65e+00    0    1.15e+00
2006 09 28  0055    54006    3300      0    1.66e+00    0    1.18e+00
2006 09 28  0100    54006    3600      0    1.72e+00    0    1.20e+00
2006 09 28  0105    54006    3900      0    1.69e+00    0    1.19e+00
2006 09 28  0110    54006    4200      0    1.64e+00    0    1.15e+00
2006 09 28  0115    54006    4500      0    1.69e+00    0    1.20e+00
2006 09 28  0120    54006    4800      0    1.67e+00    0    1.17e+00
2006 09 28  0125    54006    5100      0    1.68e+00    0    1.19e+00
2006 09 28  0130    54006    5400      0    1.69e+00    0    1.18e+00
2006 09 28  0135    54006    5700      0    1.69e+00    0    1.18e+00
2006 09 28  0140    54006    6000      0    1.67e+00    0    1.16e+00
2006 09 28  0145    54006    6300      0    1.68e+00    0    1.16e+00
2006 09 28  0150    54006    6600      0    1.67e+00    0    1.16e+00
2006 09 28  0155    54006    6900      0    1.65e+00    0    1.14e+00
2006 09 28  0200    54006    7200      0    1.65e+00    0    1.16e+00
2006 09 28  0205    54006    7500      0    1.65e+00    0    1.15e+00
2006 09 28  0210    54006    7800      0    1.68e+00    0    1.18e+00
2006 09 28  0215    54006    8100      0    1.73e+00    0    1.21e+00
2006 09 28  0220    54006    8400      0    1.68e+00    0    1.18e+00
2006 09 28  0225    54006    8700      0    1.67e+00    0    1.17e+00
2006 09 28  0230    54006    9000      0    1.68e+00    0    1.18e+00
2006 09 28  0235    54006    9300      0    1.67e+00    0    1.16e+00
2006 09 28  0240    54006    9600      0    1.68e+00    0    1.18e+00
2006 09 28  0245    54006    9900      0    1.69e+00    0    1.19e+00
2006 09 28  0250    54006   10200      0    1.66e+00    0    1.16e+00
2006 09 28  0255    54006   10500      0    1.68e+00    0    1.18e+00
2006 09 28  0300    54006   10800      0    1.71e+00    0    1.20e+00
2006 09 28  0305    54006   11100      0    1.67e+00    0    1.16e+00
2006 09 28  0310    54006   11400      0    1.69e+00    0    1.17e+00
2006 09 28  0315    54006   11700      0    1.65e+00    0    1.16e+00
2006 09 28  0320    54006   12000      0    1.58e+00    0    1.11e+00
2006 09 28  0325    54006   12300      0    1.68e+00    0    1.17e+00
2006 09 28  0330    54006   12600      0    1.66e+00    0    1.16e+00
2006 09 28  0335    54006   12900      0    1.66e+00    0    1.16e+00
2006 09 28  0340    54006   13200      0    1.67e+00    0    1.16e+00
2006 09 28  0345    54006   13500      0    1.65e+00    0    1.16e+00
2006 09 28  0350    54006   13800      9   -1.00e+05    9   -1.00e+05
2006 09 28  0355    54006   14100      9   -1.00e+05    9   -1.00e+05
2006 09 28  0400    54006   14400      9   -1.00e+05    9   -1.00e+05
2006 09 28  0405    54006   14700      9   -1.00e+05    9   -1.00e+05
2006 09 28  0410    54006   15000      9   -1.00e+05    9   -1.00e+05
2006 09 28  0415    54006   15300      9   -1.00e+05    9   -1.00e+05
2006 09 28  0420    54006   15600      9   -1.00e+05    9   -1.00e+05
2006 09 28  0425    54006   15900      9   -1.00e+05    9   -1.00e+05
2006 09 28  0430    54006   16200      9   -1.00e+05    9   -1.00e+05
2006 09 28  0435    54006   16500      9   -1.00e+05    9   -1.00e+05
2006 09 28  0440    54006   16800      9   -1.00e+05    9   -1.00e+05
2006 09 28  0445    54006   17100      9   -1.00e+05    9   -1.00e+05
2006 09 28  0450    54006   17400      9   -1.00e+05    9   -1.00e+05
2006 09 28  0455    54006   17700      9   -1.00e+05    9   -1.00e+05
2006 09 28  0500    54006   18000      9   -1.00e+05    9   -1.00e+05
2006 09 28  0505    54006   18300      9   -1.00e+05    9   -1.00e+05
2006 09 28  0510    54006   18600      9   -1.00e+05    9   -1.00e+05
2006 09 28  0515    54006   18900      9   -1.00e+05    9   -1.00e+05
2006 09 28  0520    54006   19200      9   -1.00e+05    9   -1.00e+05
2006 09 28  0525    54006   19500      9   -1.00e+05    9   -1.00e+05
2006 09 28  0530    54006   19800      9   -1.00e+05    9   -1.00e+05
2006 09 28  0535    54006   20100      9   -1.00e+05    9   -1.00e+05
2006 09 28  0540    54006   20400      9   -1.00e+05    9   -1.00e+05
2006 09 28  0545    54006   20700      9   -1.00e+05    9   -1.00e+05
2006 09 28  0550    54006   21000      9   -1.00e+05    9   -1.00e+05
2006 09 28  0555    54006   21300      0    1.70e+00    0    1.18e+00
2006 09 28  0600    54006   21600      0    1.68e+00    0    1.18e+00
2006 09 28  0605    54006   21900      0    1.66e+00    0    1.17e+00
2006 09 28  0610    54006   22200      0    1.67e+00    0    1.17e+00
2006 09 28  0615    54006   22500      0    1.71e+00    0    1.21e+00
2006 09 28  0620    54006   22800      0    1.67e+00    0    1.16e+00
2006 09 28  0625    54006   23100      0    1.68e+00    0    1.18e+00
2006 09 28  0630    54006   23400      0    1.67e+00    0    1.18e+00
2006 09 28  0635    54006   23700      0    1.67e+00    0    1.17e+00
2006 09 28  0640    54006   24000      0    1.68e+00    0    1.17e+00
2006 09 28  0645    54006   24300      0    1.67e+00    0    1.17e+00
2006 09 28  0650    54006   24600      0    1.70e+00    0    1.19e+00
2006 09 28  0655    54006   24900      0    1.67e+00    0    1.18e+00
2006 09 28  0700    54006   25200      0    1.69e+00    0    1.18e+00
2006 09 28  0705    54006   25500      0    1.70e+00    0    1.19e+00
2006 09 28  0710    54006   25800      0    1.64e+00    0    1.15e+00
2006 09 28  0715    54006   26100      0    1.66e+00    0    1.17e+00
2006 09 28  0720    54006   26400      0    1.66e+00    0    1.15e+00
2006 09 28  0725    54006   26700      0    1.68e+00    0    1.16e+00
2006 09 28  0730    54006   27000      0    1.67e+00    0    1.17e+00
2006 09 28  0735    54006   27300      0    1.68e+00    0    1.18e+00
2006 09 28  0740    54006   27600      0    1.69e+00    0    1.19e+00
2006 09 28  0745    54006   27900      0    1.67e+00    0    1.16e+00
2006 09 28  0750    54006   28200      0    1.69e+00    0    1.18e+00
2006 09 28  0755    54006   28500      0    1.67e+00    0    1.17e+00
2006 09 28  0800    54006   28800      0    1.64e+00    0    1.15e+00
2006 09 28  0805    54006   29100      0    1.69e+00    0    1.19e+00
2006 09 28  0810    54006   29400      0    1.68e+00    0    1.17e+00
2006 09 28  0815    54006   29700      0    1.68e+00    0    1.17e+00
2006 09 28  0820    54006   30000      0    1.59e+00    0    1.12e+00
2006 09 28  0825    54006   30300      0    1.66e+00    0    1.16e+00
2006 09 28  0830    54006   30600      0    1.66e+00    0    1.17e+00
2006 09 28  0835    54006   30900      0    1.67e+00    0    1.17e+00
2006 09 28  0840    54006   31200      0    1.70e+00    0    1.19e+00
2006 09 28  0845    54006   31500      0    1.64e+00    0    1.15e+00
2006 09 28  0850    54006   31800      0    1.65e+00    0    1.16e+00
2006 09 28  0855    54006   32100      0    1.68e+00    0    1.18e+00
2006 09 28  0900    54006   32400      0    1.65e+00    0    1.15e+00
2006 09 28  0905    54006   32700      0    1.69e+00    0    1.18e+00
2006 09 28  0910    54006   33000      0    1.68e+00    0    1.18e+00
2006 09 28  0915    54006   33300      0    1.65e+00    0    1.16e+00
2006 09 28  0920    54006   33600      0    1.68e+00    0    1.17e+00
2006 09 28  0925    54006   33900      0    1.65e+00    0    1.16e+00
2006 09 28  0930    54006   34200      0    1.67e+00    0    1.18e+00
2006 09 28  0935    54006   34500      0    1.70e+00    0    1.19e+00
2006 09 28  0940    54006   34800      0    1.69e+00    0    1.19e+00
2006 09 28  0945    54006   35100      0    1.69e+00    0    1.18e+00
2006 09 28  0950    54006   35400      0    1.69e+00    0    1.19e+00
2006 09 28  0955    54006   35700      0    1.66e+00    0    1.17e+00
2006 09 28  1000    54006   36000      0    1.68e+00    0    1.19e+00
2006 09 28  1005    54006   36300      0    1.69e+00    0    1.19e+00
2006 09 28  1010    54006   36600      0    1.66e+00    0    1.16e+00
2006 09 28  1015    54006   36900      0    1.64e+00    0    1.14e+00
2006 09 28  1020    54006   37200      0    1.70e+00    0    1.20e+00
2006 09 28  1025    54006   37500      0    1.70e+00    0    1.19e+00
2006 09 28  1030    54006   37800      0    1.69e+00    0    1.19e+00
2006 09 28  1035    54006   38100      0    1.68e+00    0    1.18e+00
2006 09 28  1040    54006   38400      0    1.69e+00    0    1.18e+00
2006 09 28  1045    54006   38700      0    1.67e+00    0    1.16e+00
2006 09 28  1050    54006   39000      0    1.70e+00    0    1.19e+00
2006 09 28  1055    54006   39300      0    1.69e+00    0    1.19e+00
2006 09 28  1100    54006   39600      0    1.68e+00    0    1.16e+00
2006 09 28  1105    54006   39900      0    1.69e+00    0    1.18e+00
2006 09 28  1110    54006   40200      0    1.70e+00    0    1.20e+00
2006 09 28  1115    54006   40500      0    1.64e+00    0    1.15e+00
2006 09 28  1120    54006   40800      0    1.69e+00    0    1.19e+00
2006 09 28  1125    54006   41100      0    1.67e+00    0    1.17e+00
2006 09 28  1130    54006   41400      0    1.68e+00    0    1.17e+00
2006 09 28  1135    54006   41700      0    1.69e+00    0    1.19e+00
2006 09 28  1140    54006   42000      0    1.65e+00    0    1.15e+00
2006 09 28  1145    54006   42300      0    1.65e+00    0    1.15e+00
2006 09 28  1150    54006   42600      0    1.70e+00    0    1.20e+00
2006 09 28  1155    54006   42900      0    1.67e+00    0    1.17e+00
2006 09 28  1200    54006   43200      0    1.66e+00    0    1.16e+00
2006 09 28  1205    54006   43500      0    1.72e+00    0    1.19e+00
2006 09 28  1210    54006   43800      0    1.65e+00    0    1.16e+00
2006 09 28  1215    54006   44100      0    1.69e+00    0    1.18e+00
2006 09 28  1220    54006   44400      0    1.71e+00    0    1.20e+00
2006 09 28  1225    54006   44700      0    1.67e+00    0    1.17e+00
2006 09 28  1230    54006   45000      0    1.70e+00    0    1.19e+00
2006 09 28  1235    54006   45300      0    1.68e+00    0    1.18e+00
2006 09 28  1240    54006   45600      0    1.68e+00    0    1.17e+00
2006 09 28  1245    54006   45900      0    1.67e+00    0    1.16e+00
2006 09 28  1250    54006   46200      0    1.69e+00    0    1.18e+00
2006 09 28  1255    54006   46500      0    1.67e+00    0    1.17e+00
2006 09 28  1300    54006   46800      0    1.65e+00    0    1.16e+00
2006 09 28  1305    54006   47100      0    1.65e+00    0    1.15e+00
2006 09 28  1310    54006   47400      0    1.68e+00    0    1.18e+00
2006 09 28  1315    54006   47700      0    1.66e+00    0    1.16e+00
2006 09 28  1320    54006   48000      0    1.66e+00    0    1.17e+00
2006 09 28  1325    54006   48300      0    1.69e+00    0    1.18e+00
2006 09 28  1330    54006   48600      0    1.65e+00    0    1.16e+00
2006 09 28  1335    54006   48900      0    1.68e+00    0    1.18e+00
2006 09 28  1340    54006   49200      0    1.69e+00    0    1.19e+00
2006 09 28  1345    54006   49500      0    1.66e+00    0    1.17e+00
2006 09 28  1350    54006   49800      0    1.69e+00    0    1.19e+00
2006 09 28  1355    54006   50100      0    1.65e+00    0    1.15e+00
2006 09 28  1400    54006   50400      0    1.64e+00    0    1.16e+00
2006 09 28  1405    54006   50700      0    1.64e+00    0    1.15e+00
2006 09 28  1410    54006   51000      0    1.68e+00    0    1.18e+00
2006 09 28  1415    54006   51300      0    1.66e+00    0    1.15e+00
2006 09 28  1420    54006   51600      0    1.69e+00    0    1.18e+00
2006 09 28  1425    54006   51900      0    1.68e+00    0    1.18e+00
2006 09 28  1430    54006   52200      0    1.65e+00    0    1.15e+00
2006 09 28  1435    54006   52500      0    1.62e+00    0    1.15e+00
2006 09 28  1440    54006   52800      0    1.63e+00    0    1.14e+00
2006 09 28  1445    54006   53100      0    1.69e+00    0    1.18e+00
2006 09 28  1450    54006   53400      0    1.64e+00    0    1.15e+00
2006 09 28  1455    54006   53700      0    1.71e+00    0    1.19e+00
2006 09 28  1500    54006   54000      0    1.65e+00    0    1.15e+00
2006 09 28  1505    54006   54300      0    1.63e+00    0    1.14e+00
2006 09 28  1510    54006   54600      0    1.66e+00    0    1.16e+00
2006 09 28  1515    54006   54900      0    1.68e+00    0    1.17e+00
2006 09 28  1520    54006   55200      0    1.63e+00    0    1.14e+00
2006 09 28  1525    54006   55500      0    1.68e+00    0    1.18e+00
2006 09 28  1530    54006   55800      0    1.69e+00    0    1.19e+00
2006 09 28  1535    54006   56100      0    1.69e+00    0    1.18e+00
2006 09 28  1540    54006   56400      0    1.63e+00    0    1.13e+00
2006 09 28  1545    54006   56700      0    1.72e+00    0    1.21e+00
2006 09 28  1550    54006   57000      0    1.68e+00    0    1.17e+00
2006 09 28  1555    54006   57300      0    1.69e+00    0    1.20e+00
2006 09 28  1600    54006   57600      0    1.67e+00    0    1.16e+00
2006 09 28  1605    54006   57900      0    1.69e+00    0    1.19e+00
2006 09 28  1610    54006   58200      0    1.64e+00    0    1.15e+00
2006 09 28  1615    54006   58500      0    1.65e+00    0    1.15e+00
2006 09 28  1620    54006   58800      0    1.60e+00    0    1.13e+00
2006 09 28  1625    54006   59100      0    1.64e+00    0    1.15e+00
2006 09 28  1630    54006   59400      0    1.65e+00    0    1.16e+00
2006 09 28  1635    54006   59700      0    1.65e+00    0    1.16e+00
2006 09 28  1640    54006   60000      0    1.66e+00    0    1.17e+00
2006 09 28  1645    54006   60300      0    1.61e+00    0    1.12e+00
2006 09 28  1650    54006   60600      0    1.63e+00    0    1.15e+00
2006 09 28  1655    54006   60900      0    1.65e+00    0    1.15e+00
2006 09 28  1700    54006   61200      0    1.64e+00    0    1.14e+00
2006 09 28  1705    54006   61500      0    1.64e+00    0    1.15e+00
2006 09 28  1710    54006   61800      0    1.67e+00    0    1.18e+00
2006 09 28  1715    54006   62100      0    1.66e+00    0    1.17e+00
2006 09 28  1720    54006   62400      0    1.67e+00    0    1.17e+00
2006 09 28  1725    54006   62700      0    1.68e+00    0    1.17e+00
2006 09 28  1730    54006   63000      0    1.65e+00    0    1.16e+00
2006 09 28  1735    54006   63300      0    1.69e+00    0    1.19e+00
2006 09 28  1740    54006   63600      0    1.66e+00    0    1.17e+00
2006 09 28  1745    54006   63900      0    1.69e+00    0    1.18e+00
2006 09 28  1750    54006   64200      0    1.66e+00    0    1.17e+00
2006 09 28  1755    54006   64500      0    1.67e+00    0    1.16e+00
2006 09 28  1800    54006   64800      0    1.70e+00    0    1.19e+00
2006 09 28  1805    54006   65100      0    1.66e+00    0    1.15e+00
2006 09 28  1810    54006   65400      0    1.66e+00    0    1.16e+00
2006 09 28  1815    54006   65700      0    1.69e+00    0    1.19e+00
2006 09 28  1820    54006   66000      0    1.69e+00    0    1.19e+00
2006 09 28  1825    54006   66300      0    1.69e+00    0    1.18e+00
2006 09 28  1830    54006   66600      0    1.66e+00    0    1.17e+00
2006 09 28  1835    54006   66900      0    1.66e+00    0    1.16e+00
2006 09 28  1840    54006   67200      0    1.69e+00    0    1.18e+00
2006 09 28  1845    54006   67500      0    1.68e+00    0    1.19e+00
2006 09 28  1850    54006   67800      0    1.67e+00    0    1.17e+00
2006 09 28  1855    54006   68100      0    1.67e+00    0    1.18e+00
2006 09 28  1900    54006   68400      0    1.67e+00    0    1.16e+00
2006 09 28  1905    54006   68700      0    1.68e+00    0    1.18e+00
2006 09 28  1910    54006   69000      0    1.67e+00    0    1.17e+00
2006 09 28  1915    54006   69300      0    1.63e+00    0    1.15e+00
2006 09 28  1920    54006   69600      0    1.65e+00    0    1.16e+00
2006 09 28  1925    54006   69900      0    1.63e+00    0    1.14e+00
2006 09 28  1930    54006   70200      0    1.68e+00    0    1.18e+00
2006 09 28  1935    54006   70500      0    1.65e+00    0    1.15e+00
2006 09 28  1940    54006   70800      0    1.68e+00    0    1.18e+00
2006 09 28  1945    54006   71100      0    1.67e+00    0    1.16e+00
2006 09 28  1950    54006   71400      0    1.66e+00    0    1.16e+00
2006 09 28  1955    54006   71700      0    1.68e+00    0    1.18e+00
2006 09 28  2000    54006   72000      0    1.63e+00    0    1.13e+00
2006 09 28  2005    54006   72300      0    1.66e+00    0    1.17e+00
2006 09 28  2010    54006   72600      0    1.66e+00    0    1.17e+00
2006 09 28  2015    54006   72900      0    1.62e+00    0    1.14e+00
2006 09 28  2020    54006   73200      0    1.62e+00    0    1.14e+00
2006 09 28  2025    54006   73500      0    1.66e+00    0    1.17e+00
2006 09 28  2030    54006   73800      0    1.63e+00    0    1.14e+00
2006 09 28  2035    54006   74100      0    1.66e+00    0    1.16e+00
2006 09 28  2040    54006   74400      0    1.65e+00    0    1.16e+00
2006 09 28  2045    54006   74700      0    1.68e+00    0    1.18e+00
2006 09 28  2050    54006   75000      0    1.65e+00    0    1.15e+00
2006 09 28  2055    54006   75300      0    1.67e+00    0    1.17e+00
2006 09 28  2100    54006   75600      0    1.63e+00    0    1.14e+00
2006 09 28  2105    54006   75900      0    1.67e+00    0    1.17e+00
2006 09 28  2110    54006   76200      0    1.66e+00    0    1.16e+00
2006 09 28  2115    54006   76500      0    1.64e+00    0    1.15e+00
2006 09 28  2120    54006   76800      0    1.67e+00    0    1.18e+00
2006 09 28  2125    54006   77100      0    1.66e+00    0    1.16e+00
2006 09 28  2130    54006   77400      0    1.66e+00    0    1.16e+00
2006 09 28  2135    54006   77700      0    1.65e+00    0    1.16e+00
2006 09 28  2140    54006   78000      0    1.70e+00    0    1.19e+00
2006 09 28  2145    54006   78300      0    1.68e+00    0    1.18e+00
2006 09 28  2150    54006   78600      0    1.66e+00    0    1.16e+00
2006 09 28  2155    54006   78900      0    1.65e+00    0    1.16e+00
2006 09 28  2200    54006   79200      0    1.66e+00    0    1.16e+00
2006 09 28  2205    54006   79500      0    1.69e+00    0    1.18e+00
2006 09 28  2210    54006   79800      0    1.66e+00    0    1.17e+00
2006 09 28  2215    54006   80100      0    1.67e+00    0    1.17e+00
2006 09 28  2220    54006   80400      0    1.69e+00    0    1.19e+00
2006 09 28  2225    54006   80700      0    1.63e+00    0    1.13e+00
2006 09 28  2230    54006   81000      0    1.65e+00    0    1.16e+00
2006 09 28  2235    54006   81300      0    1.66e+00    0    1.18e+00
2006 09 28  2240    54006   81600      0    1.63e+00    0    1.15e+00
2006 09 28  2245    54006   81900      0    1.66e+00    0    1.17e+00
2006 09 28  2250    54006   82200      0    1.65e+00    0    1.15e+00
2006 09 28  2255    54006   82500      0    1.64e+00    0    1.15e+00
2006 09 28  2300    54006   82800      9   -1.00e+05    9   -1.00e+05
2006 09 28  2305    54006   83100      9   -1.00e+05    9   -1.00e+05
2006 09 28  2310    54006   83400      9   -1.00e+05    9   -1.00e+05
2006 09 28  2315    54006   83700      9   -1.00e+05    9   -1.00e+05
2006 09 28  2320    54006   84000      9   -1.00e+05    9   -1.00e+05
2006 09 28  2325    54006   84300      0    1.63e+00    0    1.14e+00
2006 09 28  2330    54006   84600      0    1.62e+00    0    1.13e+00
2006 09 28  2335    54006   84900      0    1.66e+00    0    1.15e+00
2006 09 28  2340    54006   85200      0    1.65e+00    0    1.15e+00
2006 09 28  2345    54006   85500      0    1.62e+00    0    1.12e+00
2006 09 28  2350    54006   85800      0    1.63e+00    0    1.14e+00
2006 09 28  2355    54006   86100      0    1.66e+00    0    1.17e+00
