:Data_list: 20060212_ace_sis_5m.txt
:Created: 2006 Feb 13 0011 UT
# Prepared by the U.S. Dept. of Commerce, NOAA, Space Environment Center.
# Please send comments and suggestions to SEC.Webmaster@noaa.gov 
# 
# Units: proton flux p/cs2-sec-ster
# Status(S): 0 = nominal data, 1 to 8 = bad data record, 9 = no data
# Missing data values: -1.00e+05
# Source: ACE Satellite - Solar Isotope Spectrometer
#
# 5-minute averaged Real-time Integral Flux of High-energy Solar Protons
# 
#                 Modified Seconds
# UT Date   Time   Julian  of the      ---- Integral Proton Flux ----
# YR MO DA  HHMM     Day     Day       S    > 10 MeV    S    > 30 MeV
#--------------------------------------------------------------------
2006 02 12  0000    53778       0      0    1.44e+00    0    1.01e+00
2006 02 12  0005    53778     300      0    1.44e+00    0    1.01e+00
2006 02 12  0010    53778     600      0    1.45e+00    0    1.02e+00
2006 02 12  0015    53778     900      0    1.49e+00    0    1.06e+00
2006 02 12  0020    53778    1200      0    1.45e+00    0    1.01e+00
2006 02 12  0025    53778    1500      0    1.47e+00    0    1.03e+00
2006 02 12  0030    53778    1800      0    1.49e+00    0    1.05e+00
2006 02 12  0035    53778    2100      0    1.46e+00    0    1.02e+00
2006 02 12  0040    53778    2400      0    1.46e+00    0    1.02e+00
2006 02 12  0045    53778    2700      0    1.46e+00    0    1.02e+00
2006 02 12  0050    53778    3000      0    1.45e+00    0    1.01e+00
2006 02 12  0055    53778    3300      0    1.47e+00    0    1.03e+00
2006 02 12  0100    53778    3600      0    1.48e+00    0    1.04e+00
2006 02 12  0105    53778    3900      0    1.44e+00    0    1.01e+00
2006 02 12  0110    53778    4200      0    1.47e+00    0    1.04e+00
2006 02 12  0115    53778    4500      0    1.45e+00    0    1.03e+00
2006 02 12  0120    53778    4800      0    1.47e+00    0    1.03e+00
2006 02 12  0125    53778    5100      0    1.46e+00    0    1.02e+00
2006 02 12  0130    53778    5400      0    1.48e+00    0    1.04e+00
2006 02 12  0135    53778    5700      0    1.47e+00    0    1.03e+00
2006 02 12  0140    53778    6000      0    1.45e+00    0    1.02e+00
2006 02 12  0145    53778    6300      0    1.47e+00    0    1.04e+00
2006 02 12  0150    53778    6600      0    1.52e+00    0    1.07e+00
2006 02 12  0155    53778    6900      0    1.49e+00    0    1.06e+00
2006 02 12  0200    53778    7200      0    1.50e+00    0    1.06e+00
2006 02 12  0205    53778    7500      0    1.48e+00    0    1.05e+00
2006 02 12  0210    53778    7800      0    1.47e+00    0    1.03e+00
2006 02 12  0215    53778    8100      0    1.47e+00    0    1.03e+00
2006 02 12  0220    53778    8400      0    1.50e+00    0    1.06e+00
2006 02 12  0225    53778    8700      0    1.50e+00    0    1.05e+00
2006 02 12  0230    53778    9000      0    1.48e+00    0    1.04e+00
2006 02 12  0235    53778    9300      0    1.48e+00    0    1.04e+00
2006 02 12  0240    53778    9600      0    1.47e+00    0    1.02e+00
2006 02 12  0245    53778    9900      0    1.48e+00    0    1.04e+00
2006 02 12  0250    53778   10200      0    1.46e+00    0    1.02e+00
2006 02 12  0255    53778   10500      0    1.48e+00    0    1.04e+00
2006 02 12  0300    53778   10800      0    1.45e+00    0    1.01e+00
2006 02 12  0305    53778   11100      0    1.46e+00    0    1.03e+00
2006 02 12  0310    53778   11400      0    1.48e+00    0    1.03e+00
2006 02 12  0315    53778   11700      0    1.46e+00    0    1.02e+00
2006 02 12  0320    53778   12000      0    1.46e+00    0    1.01e+00
2006 02 12  0325    53778   12300      0    1.45e+00    0    1.02e+00
2006 02 12  0330    53778   12600      0    1.46e+00    0    1.04e+00
2006 02 12  0335    53778   12900      0    1.47e+00    0    1.03e+00
2006 02 12  0340    53778   13200      0    1.48e+00    0    1.05e+00
2006 02 12  0345    53778   13500      0    1.48e+00    0    1.04e+00
2006 02 12  0350    53778   13800      0    1.45e+00    0    1.02e+00
2006 02 12  0355    53778   14100      0    1.47e+00    0    1.04e+00
2006 02 12  0400    53778   14400      0    1.50e+00    0    1.05e+00
2006 02 12  0405    53778   14700      0    1.49e+00    0    1.05e+00
2006 02 12  0410    53778   15000      0    1.49e+00    0    1.04e+00
2006 02 12  0415    53778   15300      0    1.42e+00    0    1.01e+00
2006 02 12  0420    53778   15600      0    1.47e+00    0    1.03e+00
2006 02 12  0425    53778   15900      0    1.44e+00    0    1.01e+00
2006 02 12  0430    53778   16200      0    1.48e+00    0    1.03e+00
2006 02 12  0435    53778   16500      0    1.50e+00    0    1.06e+00
2006 02 12  0440    53778   16800      0    1.46e+00    0    1.03e+00
2006 02 12  0445    53778   17100      0    1.49e+00    0    1.05e+00
2006 02 12  0450    53778   17400      0    1.49e+00    0    1.03e+00
2006 02 12  0455    53778   17700      0    1.48e+00    0    1.05e+00
2006 02 12  0500    53778   18000      0    1.45e+00    0    1.02e+00
2006 02 12  0505    53778   18300      0    1.46e+00    0    1.04e+00
2006 02 12  0510    53778   18600      0    1.48e+00    0    1.05e+00
2006 02 12  0515    53778   18900      0    1.48e+00    0    1.04e+00
2006 02 12  0520    53778   19200      0    1.48e+00    0    1.04e+00
2006 02 12  0525    53778   19500      0    1.51e+00    0    1.06e+00
2006 02 12  0530    53778   19800      0    1.47e+00    0    1.03e+00
2006 02 12  0535    53778   20100      0    1.48e+00    0    1.05e+00
2006 02 12  0540    53778   20400      0    1.48e+00    0    1.03e+00
2006 02 12  0545    53778   20700      0    1.48e+00    0    1.04e+00
2006 02 12  0550    53778   21000      0    1.50e+00    0    1.06e+00
2006 02 12  0555    53778   21300      0    1.44e+00    0    1.02e+00
2006 02 12  0600    53778   21600      0    1.48e+00    0    1.03e+00
2006 02 12  0605    53778   21900      0    1.48e+00    0    1.05e+00
2006 02 12  0610    53778   22200      0    1.49e+00    0    1.05e+00
2006 02 12  0615    53778   22500      0    1.44e+00    0    1.01e+00
2006 02 12  0620    53778   22800      0    1.47e+00    0    1.04e+00
2006 02 12  0625    53778   23100      0    1.48e+00    0    1.03e+00
2006 02 12  0630    53778   23400      0    1.48e+00    0    1.05e+00
2006 02 12  0635    53778   23700      0    1.44e+00    0    1.00e+00
2006 02 12  0640    53778   24000      0    1.47e+00    0    1.04e+00
2006 02 12  0645    53778   24300      0    1.45e+00    0    1.02e+00
2006 02 12  0650    53778   24600      0    1.47e+00    0    1.03e+00
2006 02 12  0655    53778   24900      0    1.45e+00    0    1.01e+00
2006 02 12  0700    53778   25200      0    1.45e+00    0    1.02e+00
2006 02 12  0705    53778   25500      0    1.48e+00    0    1.05e+00
2006 02 12  0710    53778   25800      0    1.46e+00    0    1.02e+00
2006 02 12  0715    53778   26100      0    1.48e+00    0    1.04e+00
2006 02 12  0720    53778   26400      0    1.48e+00    0    1.04e+00
2006 02 12  0725    53778   26700      0    1.48e+00    0    1.04e+00
2006 02 12  0730    53778   27000      0    1.49e+00    0    1.04e+00
2006 02 12  0735    53778   27300      0    1.47e+00    0    1.04e+00
2006 02 12  0740    53778   27600      0    1.49e+00    0    1.05e+00
2006 02 12  0745    53778   27900      0    1.45e+00    0    1.02e+00
2006 02 12  0750    53778   28200      0    1.48e+00    0    1.03e+00
2006 02 12  0755    53778   28500      0    1.44e+00    0    1.02e+00
2006 02 12  0800    53778   28800      0    1.48e+00    0    1.05e+00
2006 02 12  0805    53778   29100      0    1.43e+00    0    1.00e+00
2006 02 12  0810    53778   29400      0    1.49e+00    0    1.04e+00
2006 02 12  0815    53778   29700      0    1.46e+00    0    1.03e+00
2006 02 12  0820    53778   30000      0    1.47e+00    0    1.04e+00
2006 02 12  0825    53778   30300      0    1.48e+00    0    1.04e+00
2006 02 12  0830    53778   30600      0    1.45e+00    0    1.02e+00
2006 02 12  0835    53778   30900      0    1.47e+00    0    1.04e+00
2006 02 12  0840    53778   31200      0    1.48e+00    0    1.04e+00
2006 02 12  0845    53778   31500      0    1.48e+00    0    1.04e+00
2006 02 12  0850    53778   31800      0    1.49e+00    0    1.05e+00
2006 02 12  0855    53778   32100      0    1.46e+00    0    1.02e+00
2006 02 12  0900    53778   32400      0    1.51e+00    0    1.07e+00
2006 02 12  0905    53778   32700      0    1.43e+00    0    1.00e+00
2006 02 12  0910    53778   33000      0    1.50e+00    0    1.06e+00
2006 02 12  0915    53778   33300      0    1.46e+00    0    1.03e+00
2006 02 12  0920    53778   33600      0    1.45e+00    0    1.03e+00
2006 02 12  0925    53778   33900      0    1.47e+00    0    1.03e+00
2006 02 12  0930    53778   34200      0    1.49e+00    0    1.03e+00
2006 02 12  0935    53778   34500      0    1.48e+00    0    1.04e+00
2006 02 12  0940    53778   34800      0    1.48e+00    0    1.05e+00
2006 02 12  0945    53778   35100      0    1.46e+00    0    1.03e+00
2006 02 12  0950    53778   35400      0    1.47e+00    0    1.03e+00
2006 02 12  0955    53778   35700      0    1.46e+00    0    1.03e+00
2006 02 12  1000    53778   36000      0    1.45e+00    0    1.02e+00
2006 02 12  1005    53778   36300      0    1.43e+00    0    1.00e+00
2006 02 12  1010    53778   36600      0    1.44e+00    0    1.00e+00
2006 02 12  1015    53778   36900      0    1.44e+00    0    1.01e+00
2006 02 12  1020    53778   37200      0    1.45e+00    0    1.03e+00
2006 02 12  1025    53778   37500      0    1.47e+00    0    1.02e+00
2006 02 12  1030    53778   37800      0    1.47e+00    0    1.03e+00
2006 02 12  1035    53778   38100      0    1.49e+00    0    1.04e+00
2006 02 12  1040    53778   38400      0    1.46e+00    0    1.03e+00
2006 02 12  1045    53778   38700      0    1.46e+00    0    1.02e+00
2006 02 12  1050    53778   39000      0    1.48e+00    0    1.03e+00
2006 02 12  1055    53778   39300      0    1.45e+00    0    1.02e+00
2006 02 12  1100    53778   39600      0    1.51e+00    0    1.06e+00
2006 02 12  1105    53778   39900      0    1.45e+00    0    1.03e+00
2006 02 12  1110    53778   40200      0    1.44e+00    0    1.01e+00
2006 02 12  1115    53778   40500      0    1.48e+00    0    1.03e+00
2006 02 12  1120    53778   40800      0    1.46e+00    0    1.02e+00
2006 02 12  1125    53778   41100      0    1.45e+00    0    1.02e+00
2006 02 12  1130    53778   41400      0    1.46e+00    0    1.02e+00
2006 02 12  1135    53778   41700      0    1.49e+00    0    1.05e+00
2006 02 12  1140    53778   42000      0    1.46e+00    0    1.03e+00
2006 02 12  1145    53778   42300      0    1.47e+00    0    1.04e+00
2006 02 12  1150    53778   42600      0    1.44e+00    0    1.02e+00
2006 02 12  1155    53778   42900      0    1.48e+00    0    1.04e+00
2006 02 12  1200    53778   43200      0    1.46e+00    0    1.03e+00
2006 02 12  1205    53778   43500      0    1.46e+00    0    1.04e+00
2006 02 12  1210    53778   43800      0    1.45e+00    0    1.02e+00
2006 02 12  1215    53778   44100      0    1.48e+00    0    1.04e+00
2006 02 12  1220    53778   44400      0    1.46e+00    0    1.02e+00
2006 02 12  1225    53778   44700      0    1.48e+00    0    1.03e+00
2006 02 12  1230    53778   45000      0    1.45e+00    0    1.02e+00
2006 02 12  1235    53778   45300      0    1.44e+00    0    1.01e+00
2006 02 12  1240    53778   45600      0    1.46e+00    0    1.03e+00
2006 02 12  1245    53778   45900      0    1.45e+00    0    1.02e+00
2006 02 12  1250    53778   46200      0    1.46e+00    0    1.02e+00
2006 02 12  1255    53778   46500      0    1.48e+00    0    1.04e+00
2006 02 12  1300    53778   46800      0    1.47e+00    0    1.02e+00
2006 02 12  1305    53778   47100      0    1.46e+00    0    1.02e+00
2006 02 12  1310    53778   47400      0    1.43e+00    0    1.00e+00
2006 02 12  1315    53778   47700      0    1.42e+00    0    9.88e-01
2006 02 12  1320    53778   48000      0    1.48e+00    0    1.04e+00
2006 02 12  1325    53778   48300      0    1.48e+00    0    1.05e+00
2006 02 12  1330    53778   48600      0    1.43e+00    0    1.01e+00
2006 02 12  1335    53778   48900      0    1.47e+00    0    1.03e+00
2006 02 12  1340    53778   49200      0    1.45e+00    0    1.01e+00
2006 02 12  1345    53778   49500      0    1.45e+00    0    1.03e+00
2006 02 12  1350    53778   49800      0    1.48e+00    0    1.03e+00
2006 02 12  1355    53778   50100      0    1.48e+00    0    1.04e+00
2006 02 12  1400    53778   50400      0    1.47e+00    0    1.04e+00
2006 02 12  1405    53778   50700      0    1.46e+00    0    1.03e+00
2006 02 12  1410    53778   51000      0    1.46e+00    0    1.03e+00
2006 02 12  1415    53778   51300      0    1.49e+00    0    1.04e+00
2006 02 12  1420    53778   51600      0    1.47e+00    0    1.03e+00
2006 02 12  1425    53778   51900      0    1.47e+00    0    1.04e+00
2006 02 12  1430    53778   52200      0    1.41e+00    0    9.83e-01
2006 02 12  1435    53778   52500      0    1.46e+00    0    1.03e+00
2006 02 12  1440    53778   52800      0    1.43e+00    0    1.00e+00
2006 02 12  1445    53778   53100      0    1.45e+00    0    1.02e+00
2006 02 12  1450    53778   53400      0    1.50e+00    0    1.06e+00
2006 02 12  1455    53778   53700      0    1.43e+00    0    1.01e+00
2006 02 12  1500    53778   54000      0    1.48e+00    0    1.04e+00
2006 02 12  1505    53778   54300      0    1.44e+00    0    1.01e+00
2006 02 12  1510    53778   54600      0    1.43e+00    0    1.01e+00
2006 02 12  1515    53778   54900      0    1.42e+00    0    9.99e-01
2006 02 12  1520    53778   55200      0    1.44e+00    0    1.02e+00
2006 02 12  1525    53778   55500      0    1.43e+00    0    1.00e+00
2006 02 12  1530    53778   55800      0    1.45e+00    0    1.02e+00
2006 02 12  1535    53778   56100      0    1.47e+00    0    1.02e+00
2006 02 12  1540    53778   56400      0    1.43e+00    0    1.01e+00
2006 02 12  1545    53778   56700      0    1.46e+00    0    1.01e+00
2006 02 12  1550    53778   57000      0    1.45e+00    0    1.02e+00
2006 02 12  1555    53778   57300      0    1.46e+00    0    1.03e+00
2006 02 12  1600    53778   57600      0    1.45e+00    0    1.03e+00
2006 02 12  1605    53778   57900      0    1.46e+00    0    1.02e+00
2006 02 12  1610    53778   58200      0    1.44e+00    0    1.01e+00
2006 02 12  1615    53778   58500      0    1.47e+00    0    1.03e+00
2006 02 12  1620    53778   58800      0    1.47e+00    0    1.03e+00
2006 02 12  1625    53778   59100      0    1.48e+00    0    1.05e+00
2006 02 12  1630    53778   59400      0    1.44e+00    0    9.99e-01
2006 02 12  1635    53778   59700      0    1.44e+00    0    1.02e+00
2006 02 12  1640    53778   60000      0    1.44e+00    0    1.01e+00
2006 02 12  1645    53778   60300      0    1.45e+00    0    1.02e+00
2006 02 12  1650    53778   60600      0    1.42e+00    0    9.89e-01
2006 02 12  1655    53778   60900      0    1.46e+00    0    1.03e+00
2006 02 12  1700    53778   61200      0    1.47e+00    0    1.04e+00
2006 02 12  1705    53778   61500      0    1.46e+00    0    1.04e+00
2006 02 12  1710    53778   61800      0    1.45e+00    0    1.02e+00
2006 02 12  1715    53778   62100      0    1.43e+00    0    1.01e+00
2006 02 12  1720    53778   62400      0    1.45e+00    0    1.03e+00
2006 02 12  1725    53778   62700      0    1.47e+00    0    1.02e+00
2006 02 12  1730    53778   63000      0    1.45e+00    0    1.02e+00
2006 02 12  1735    53778   63300      0    1.47e+00    0    1.03e+00
2006 02 12  1740    53778   63600      0    1.47e+00    0    1.03e+00
2006 02 12  1745    53778   63900      0    1.52e+00    0    1.06e+00
2006 02 12  1750    53778   64200      0    1.46e+00    0    1.04e+00
2006 02 12  1755    53778   64500      0    1.47e+00    0    1.03e+00
2006 02 12  1800    53778   64800      0    1.47e+00    0    1.03e+00
2006 02 12  1805    53778   65100      0    1.48e+00    0    1.04e+00
2006 02 12  1810    53778   65400      0    1.44e+00    0    1.02e+00
2006 02 12  1815    53778   65700      0    1.46e+00    0    1.03e+00
2006 02 12  1820    53778   66000      0    1.50e+00    0    1.05e+00
2006 02 12  1825    53778   66300      0    1.47e+00    0    1.03e+00
2006 02 12  1830    53778   66600      0    1.50e+00    0    1.05e+00
2006 02 12  1835    53778   66900      0    1.46e+00    0    1.03e+00
2006 02 12  1840    53778   67200      0    1.52e+00    0    1.07e+00
2006 02 12  1845    53778   67500      0    1.49e+00    0    1.04e+00
2006 02 12  1850    53778   67800      0    1.45e+00    0    1.02e+00
2006 02 12  1855    53778   68100      0    1.49e+00    0    1.04e+00
2006 02 12  1900    53778   68400      0    1.47e+00    0    1.03e+00
2006 02 12  1905    53778   68700      0    1.49e+00    0    1.03e+00
2006 02 12  1910    53778   69000      0    1.49e+00    0    1.05e+00
2006 02 12  1915    53778   69300      0    1.47e+00    0    1.02e+00
2006 02 12  1920    53778   69600      0    1.49e+00    0    1.05e+00
2006 02 12  1925    53778   69900      0    1.48e+00    0    1.05e+00
2006 02 12  1930    53778   70200      0    1.47e+00    0    1.04e+00
2006 02 12  1935    53778   70500      0    1.47e+00    0    1.02e+00
2006 02 12  1940    53778   70800      0    1.51e+00    0    1.06e+00
2006 02 12  1945    53778   71100      0    1.47e+00    0    1.02e+00
2006 02 12  1950    53778   71400      0    1.48e+00    0    1.04e+00
2006 02 12  1955    53778   71700      0    1.46e+00    0    1.02e+00
2006 02 12  2000    53778   72000      0    1.51e+00    0    1.06e+00
2006 02 12  2005    53778   72300      0    1.52e+00    0    1.07e+00
2006 02 12  2010    53778   72600      0    1.48e+00    0    1.05e+00
2006 02 12  2015    53778   72900      0    1.47e+00    0    1.04e+00
2006 02 12  2020    53778   73200      0    1.48e+00    0    1.03e+00
2006 02 12  2025    53778   73500      0    1.47e+00    0    1.04e+00
2006 02 12  2030    53778   73800      0    1.47e+00    0    1.02e+00
2006 02 12  2035    53778   74100      0    1.47e+00    0    1.04e+00
2006 02 12  2040    53778   74400      0    1.51e+00    0    1.05e+00
2006 02 12  2045    53778   74700      0    1.50e+00    0    1.05e+00
2006 02 12  2050    53778   75000      0    1.46e+00    0    1.02e+00
2006 02 12  2055    53778   75300      0    1.45e+00    0    1.02e+00
2006 02 12  2100    53778   75600      0    1.44e+00    0    1.01e+00
2006 02 12  2105    53778   75900      0    1.49e+00    0    1.04e+00
2006 02 12  2110    53778   76200      0    1.49e+00    0    1.06e+00
2006 02 12  2115    53778   76500      0    1.46e+00    0    1.02e+00
2006 02 12  2120    53778   76800      0    1.50e+00    0    1.05e+00
2006 02 12  2125    53778   77100      0    1.48e+00    0    1.04e+00
2006 02 12  2130    53778   77400      0    1.48e+00    0    1.04e+00
2006 02 12  2135    53778   77700      0    1.49e+00    0    1.05e+00
2006 02 12  2140    53778   78000      0    1.47e+00    0    1.04e+00
2006 02 12  2145    53778   78300      0    1.44e+00    0    1.01e+00
2006 02 12  2150    53778   78600      0    1.48e+00    0    1.03e+00
2006 02 12  2155    53778   78900      0    1.48e+00    0    1.04e+00
2006 02 12  2200    53778   79200      0    1.45e+00    0    1.02e+00
2006 02 12  2205    53778   79500      0    1.50e+00    0    1.05e+00
2006 02 12  2210    53778   79800      0    1.51e+00    0    1.07e+00
2006 02 12  2215    53778   80100      0    1.50e+00    0    1.06e+00
2006 02 12  2220    53778   80400      0    1.50e+00    0    1.06e+00
2006 02 12  2225    53778   80700      0    1.48e+00    0    1.05e+00
2006 02 12  2230    53778   81000      0    1.48e+00    0    1.04e+00
2006 02 12  2235    53778   81300      0    1.46e+00    0    1.03e+00
2006 02 12  2240    53778   81600      0    1.48e+00    0    1.05e+00
2006 02 12  2245    53778   81900      0    1.47e+00    0    1.04e+00
2006 02 12  2250    53778   82200      0    1.50e+00    0    1.04e+00
2006 02 12  2255    53778   82500      0    1.48e+00    0    1.04e+00
2006 02 12  2300    53778   82800      0    1.51e+00    0    1.07e+00
2006 02 12  2305    53778   83100      0    1.50e+00    0    1.05e+00
2006 02 12  2310    53778   83400      0    1.47e+00    0    1.03e+00
2006 02 12  2315    53778   83700      0    1.45e+00    0    1.02e+00
2006 02 12  2320    53778   84000      0    1.49e+00    0    1.04e+00
2006 02 12  2325    53778   84300      0    1.50e+00    0    1.07e+00
2006 02 12  2330    53778   84600      0    1.48e+00    0    1.04e+00
2006 02 12  2335    53778   84900      0    1.50e+00    0    1.06e+00
2006 02 12  2340    53778   85200      0    1.47e+00    0    1.03e+00
2006 02 12  2345    53778   85500      0    1.48e+00    0    1.04e+00
2006 02 12  2350    53778   85800      0    1.45e+00    0    1.01e+00
2006 02 12  2355    53778   86100      0    1.49e+00    0    1.04e+00
