:Data_list: 20061104_ace_sis_5m.txt
:Created: 2006 Nov 05 0011 UT
# Prepared by the U.S. Dept. of Commerce, NOAA, Space Environment Center.
# Please send comments and suggestions to SEC.Webmaster@noaa.gov 
# 
# Units: proton flux p/cs2-sec-ster
# Status(S): 0 = nominal data, 1 to 8 = bad data record, 9 = no data
# Missing data values: -1.00e+05
# Source: ACE Satellite - Solar Isotope Spectrometer
#
# 5-minute averaged Real-time Integral Flux of High-energy Solar Protons
# 
#                 Modified Seconds
# UT Date   Time   Julian  of the      ---- Integral Proton Flux ----
# YR MO DA  HHMM     Day     Day       S    > 10 MeV    S    > 30 MeV
#--------------------------------------------------------------------
2006 11 04  0000    54043       0      0    1.73e+00    0    1.21e+00
2006 11 04  0005    54043     300      0    1.74e+00    0    1.22e+00
2006 11 04  0010    54043     600      0    1.70e+00    0    1.19e+00
2006 11 04  0015    54043     900      0    1.72e+00    0    1.20e+00
2006 11 04  0020    54043    1200      0    1.73e+00    0    1.23e+00
2006 11 04  0025    54043    1500      0    1.72e+00    0    1.22e+00
2006 11 04  0030    54043    1800      0    1.71e+00    0    1.19e+00
2006 11 04  0035    54043    2100      0    1.72e+00    0    1.20e+00
2006 11 04  0040    54043    2400      0    1.73e+00    0    1.21e+00
2006 11 04  0045    54043    2700      0    1.68e+00    0    1.19e+00
2006 11 04  0050    54043    3000      0    1.70e+00    0    1.18e+00
2006 11 04  0055    54043    3300      0    1.69e+00    0    1.18e+00
2006 11 04  0100    54043    3600      0    1.72e+00    0    1.22e+00
2006 11 04  0105    54043    3900      0    1.74e+00    0    1.21e+00
2006 11 04  0110    54043    4200      0    1.71e+00    0    1.19e+00
2006 11 04  0115    54043    4500      0    1.70e+00    0    1.19e+00
2006 11 04  0120    54043    4800      0    1.71e+00    0    1.20e+00
2006 11 04  0125    54043    5100      0    1.73e+00    0    1.21e+00
2006 11 04  0130    54043    5400      0    1.67e+00    0    1.17e+00
2006 11 04  0135    54043    5700      0    1.74e+00    0    1.23e+00
2006 11 04  0140    54043    6000      0    1.71e+00    0    1.20e+00
2006 11 04  0145    54043    6300      0    1.68e+00    0    1.17e+00
2006 11 04  0150    54043    6600      0    1.72e+00    0    1.21e+00
2006 11 04  0155    54043    6900      0    1.70e+00    0    1.19e+00
2006 11 04  0200    54043    7200      0    1.73e+00    0    1.21e+00
2006 11 04  0205    54043    7500      0    1.67e+00    0    1.17e+00
2006 11 04  0210    54043    7800      0    1.72e+00    0    1.20e+00
2006 11 04  0215    54043    8100      0    1.75e+00    0    1.22e+00
2006 11 04  0220    54043    8400      0    1.70e+00    0    1.19e+00
2006 11 04  0225    54043    8700      0    1.69e+00    0    1.20e+00
2006 11 04  0230    54043    9000      0    1.70e+00    0    1.20e+00
2006 11 04  0235    54043    9300      0    1.71e+00    0    1.19e+00
2006 11 04  0240    54043    9600      0    1.70e+00    0    1.20e+00
2006 11 04  0245    54043    9900      0    1.74e+00    0    1.22e+00
2006 11 04  0250    54043   10200      0    1.69e+00    0    1.18e+00
2006 11 04  0255    54043   10500      0    1.71e+00    0    1.19e+00
2006 11 04  0300    54043   10800      0    1.68e+00    0    1.17e+00
2006 11 04  0305    54043   11100      0    1.67e+00    0    1.18e+00
2006 11 04  0310    54043   11400      0    1.68e+00    0    1.18e+00
2006 11 04  0315    54043   11700      0    1.70e+00    0    1.18e+00
2006 11 04  0320    54043   12000      0    1.69e+00    0    1.19e+00
2006 11 04  0325    54043   12300      0    1.68e+00    0    1.18e+00
2006 11 04  0330    54043   12600      0    1.71e+00    0    1.21e+00
2006 11 04  0335    54043   12900      0    1.69e+00    0    1.19e+00
2006 11 04  0340    54043   13200      0    1.68e+00    0    1.18e+00
2006 11 04  0345    54043   13500      0    1.68e+00    0    1.17e+00
2006 11 04  0350    54043   13800      0    1.69e+00    0    1.18e+00
2006 11 04  0355    54043   14100      0    1.68e+00    0    1.18e+00
2006 11 04  0400    54043   14400      0    1.70e+00    0    1.19e+00
2006 11 04  0405    54043   14700      0    1.75e+00    0    1.24e+00
2006 11 04  0410    54043   15000      0    1.71e+00    0    1.19e+00
2006 11 04  0415    54043   15300      0    1.70e+00    0    1.19e+00
2006 11 04  0420    54043   15600      0    1.70e+00    0    1.21e+00
2006 11 04  0425    54043   15900      0    1.67e+00    0    1.18e+00
2006 11 04  0430    54043   16200      0    1.72e+00    0    1.20e+00
2006 11 04  0435    54043   16500      0    1.69e+00    0    1.20e+00
2006 11 04  0440    54043   16800      0    1.73e+00    0    1.22e+00
2006 11 04  0445    54043   17100      0    1.70e+00    0    1.19e+00
2006 11 04  0450    54043   17400      0    1.69e+00    0    1.19e+00
2006 11 04  0455    54043   17700      0    1.68e+00    0    1.18e+00
2006 11 04  0500    54043   18000      0    1.72e+00    0    1.20e+00
2006 11 04  0505    54043   18300      0    1.72e+00    0    1.19e+00
2006 11 04  0510    54043   18600      0    1.69e+00    0    1.18e+00
2006 11 04  0515    54043   18900      0    1.69e+00    0    1.19e+00
2006 11 04  0520    54043   19200      0    1.73e+00    0    1.21e+00
2006 11 04  0525    54043   19500      0    1.71e+00    0    1.20e+00
2006 11 04  0530    54043   19800      0    1.69e+00    0    1.18e+00
2006 11 04  0535    54043   20100      0    1.70e+00    0    1.19e+00
2006 11 04  0540    54043   20400      0    1.70e+00    0    1.18e+00
2006 11 04  0545    54043   20700      0    1.70e+00    0    1.20e+00
2006 11 04  0550    54043   21000      0    1.74e+00    0    1.21e+00
2006 11 04  0555    54043   21300      0    1.73e+00    0    1.22e+00
2006 11 04  0600    54043   21600      0    1.71e+00    0    1.19e+00
2006 11 04  0605    54043   21900      0    1.70e+00    0    1.18e+00
2006 11 04  0610    54043   22200      0    1.70e+00    0    1.19e+00
2006 11 04  0615    54043   22500      0    1.73e+00    0    1.21e+00
2006 11 04  0620    54043   22800      0    1.69e+00    0    1.19e+00
2006 11 04  0625    54043   23100      0    1.68e+00    0    1.18e+00
2006 11 04  0630    54043   23400      0    1.68e+00    0    1.18e+00
2006 11 04  0635    54043   23700      0    1.69e+00    0    1.17e+00
2006 11 04  0640    54043   24000      0    1.69e+00    0    1.19e+00
2006 11 04  0645    54043   24300      0    1.70e+00    0    1.20e+00
2006 11 04  0650    54043   24600      0    1.72e+00    0    1.20e+00
2006 11 04  0655    54043   24900      0    1.67e+00    0    1.18e+00
2006 11 04  0700    54043   25200      0    1.68e+00    0    1.17e+00
2006 11 04  0705    54043   25500      0    1.72e+00    0    1.21e+00
2006 11 04  0710    54043   25800      0    1.67e+00    0    1.16e+00
2006 11 04  0715    54043   26100      0    1.68e+00    0    1.16e+00
2006 11 04  0720    54043   26400      0    1.73e+00    0    1.21e+00
2006 11 04  0725    54043   26700      0    1.70e+00    0    1.19e+00
2006 11 04  0730    54043   27000      0    1.70e+00    0    1.19e+00
2006 11 04  0735    54043   27300      0    1.69e+00    0    1.18e+00
2006 11 04  0740    54043   27600      0    1.73e+00    0    1.21e+00
2006 11 04  0745    54043   27900      0    1.69e+00    0    1.18e+00
2006 11 04  0750    54043   28200      0    1.68e+00    0    1.18e+00
2006 11 04  0755    54043   28500      0    1.69e+00    0    1.18e+00
2006 11 04  0800    54043   28800      0    1.72e+00    0    1.20e+00
2006 11 04  0805    54043   29100      0    1.70e+00    0    1.20e+00
2006 11 04  0810    54043   29400      0    1.74e+00    0    1.22e+00
2006 11 04  0815    54043   29700      0    1.66e+00    0    1.16e+00
2006 11 04  0820    54043   30000      0    1.72e+00    0    1.20e+00
2006 11 04  0825    54043   30300      0    1.70e+00    0    1.19e+00
2006 11 04  0830    54043   30600      0    1.69e+00    0    1.19e+00
2006 11 04  0835    54043   30900      0    1.70e+00    0    1.19e+00
2006 11 04  0840    54043   31200      0    1.72e+00    0    1.21e+00
2006 11 04  0845    54043   31500      0    1.68e+00    0    1.19e+00
2006 11 04  0850    54043   31800      0    1.67e+00    0    1.17e+00
2006 11 04  0855    54043   32100      0    1.68e+00    0    1.19e+00
2006 11 04  0900    54043   32400      0    1.69e+00    0    1.19e+00
2006 11 04  0905    54043   32700      0    1.70e+00    0    1.19e+00
2006 11 04  0910    54043   33000      0    1.69e+00    0    1.19e+00
2006 11 04  0915    54043   33300      0    1.69e+00    0    1.18e+00
2006 11 04  0920    54043   33600      0    1.73e+00    0    1.22e+00
2006 11 04  0925    54043   33900      0    1.66e+00    0    1.16e+00
2006 11 04  0930    54043   34200      0    1.71e+00    0    1.20e+00
2006 11 04  0935    54043   34500      0    1.68e+00    0    1.18e+00
2006 11 04  0940    54043   34800      0    1.69e+00    0    1.17e+00
2006 11 04  0945    54043   35100      0    1.67e+00    0    1.17e+00
2006 11 04  0950    54043   35400      0    1.72e+00    0    1.20e+00
2006 11 04  0955    54043   35700      0    1.67e+00    0    1.18e+00
2006 11 04  1000    54043   36000      0    1.68e+00    0    1.17e+00
2006 11 04  1005    54043   36300      0    1.70e+00    0    1.19e+00
2006 11 04  1010    54043   36600      0    1.70e+00    0    1.18e+00
2006 11 04  1015    54043   36900      0    1.69e+00    0    1.19e+00
2006 11 04  1020    54043   37200      0    1.73e+00    0    1.20e+00
2006 11 04  1025    54043   37500      0    1.69e+00    0    1.17e+00
2006 11 04  1030    54043   37800      0    1.70e+00    0    1.19e+00
2006 11 04  1035    54043   38100      0    1.69e+00    0    1.18e+00
2006 11 04  1040    54043   38400      0    1.69e+00    0    1.18e+00
2006 11 04  1045    54043   38700      0    1.72e+00    0    1.20e+00
2006 11 04  1050    54043   39000      0    1.70e+00    0    1.19e+00
2006 11 04  1055    54043   39300      0    1.68e+00    0    1.17e+00
2006 11 04  1100    54043   39600      0    1.65e+00    0    1.16e+00
2006 11 04  1105    54043   39900      0    1.68e+00    0    1.17e+00
2006 11 04  1110    54043   40200      0    1.71e+00    0    1.20e+00
2006 11 04  1115    54043   40500      0    1.66e+00    0    1.16e+00
2006 11 04  1120    54043   40800      0    1.71e+00    0    1.20e+00
2006 11 04  1125    54043   41100      0    1.66e+00    0    1.16e+00
2006 11 04  1130    54043   41400      0    1.71e+00    0    1.18e+00
2006 11 04  1135    54043   41700      0    1.71e+00    0    1.21e+00
2006 11 04  1140    54043   42000      0    1.67e+00    0    1.18e+00
2006 11 04  1145    54043   42300      0    1.67e+00    0    1.17e+00
2006 11 04  1150    54043   42600      0    1.71e+00    0    1.19e+00
2006 11 04  1155    54043   42900      0    1.65e+00    0    1.15e+00
2006 11 04  1200    54043   43200      0    1.68e+00    0    1.18e+00
2006 11 04  1205    54043   43500      0    1.71e+00    0    1.21e+00
2006 11 04  1210    54043   43800      0    1.66e+00    0    1.16e+00
2006 11 04  1215    54043   44100      0    1.71e+00    0    1.19e+00
2006 11 04  1220    54043   44400      0    1.69e+00    0    1.18e+00
2006 11 04  1225    54043   44700      0    1.69e+00    0    1.18e+00
2006 11 04  1230    54043   45000      0    1.69e+00    0    1.18e+00
2006 11 04  1235    54043   45300      0    1.69e+00    0    1.19e+00
2006 11 04  1240    54043   45600      0    1.71e+00    0    1.21e+00
2006 11 04  1245    54043   45900      0    1.70e+00    0    1.19e+00
2006 11 04  1250    54043   46200      0    1.72e+00    0    1.22e+00
2006 11 04  1255    54043   46500      0    1.68e+00    0    1.18e+00
2006 11 04  1300    54043   46800      0    1.69e+00    0    1.18e+00
2006 11 04  1305    54043   47100      0    1.68e+00    0    1.19e+00
2006 11 04  1310    54043   47400      0    1.72e+00    0    1.20e+00
2006 11 04  1315    54043   47700      0    1.72e+00    0    1.22e+00
2006 11 04  1320    54043   48000      0    1.73e+00    0    1.22e+00
2006 11 04  1325    54043   48300      0    1.71e+00    0    1.21e+00
2006 11 04  1330    54043   48600      0    1.69e+00    0    1.18e+00
2006 11 04  1335    54043   48900      0    1.69e+00    0    1.19e+00
2006 11 04  1340    54043   49200      0    1.70e+00    0    1.20e+00
2006 11 04  1345    54043   49500      0    1.69e+00    0    1.18e+00
2006 11 04  1350    54043   49800      0    1.69e+00    0    1.19e+00
2006 11 04  1355    54043   50100      0    1.70e+00    0    1.18e+00
2006 11 04  1400    54043   50400      0    1.68e+00    0    1.16e+00
2006 11 04  1405    54043   50700      0    1.66e+00    0    1.16e+00
2006 11 04  1410    54043   51000      0    1.70e+00    0    1.19e+00
2006 11 04  1415    54043   51300      0    1.68e+00    0    1.17e+00
2006 11 04  1420    54043   51600      0    1.72e+00    0    1.21e+00
2006 11 04  1425    54043   51900      0    1.66e+00    0    1.16e+00
2006 11 04  1430    54043   52200      0    1.71e+00    0    1.20e+00
2006 11 04  1435    54043   52500      0    1.66e+00    0    1.16e+00
2006 11 04  1440    54043   52800      0    1.68e+00    0    1.18e+00
2006 11 04  1445    54043   53100      0    1.67e+00    0    1.16e+00
2006 11 04  1450    54043   53400      0    1.60e+00    0    1.12e+00
2006 11 04  1455    54043   53700      0    1.69e+00    0    1.18e+00
2006 11 04  1500    54043   54000      0    1.68e+00    0    1.20e+00
2006 11 04  1505    54043   54300      0    1.71e+00    0    1.20e+00
2006 11 04  1510    54043   54600      0    1.72e+00    0    1.21e+00
2006 11 04  1515    54043   54900      0    1.69e+00    0    1.18e+00
2006 11 04  1520    54043   55200      0    1.71e+00    0    1.20e+00
2006 11 04  1525    54043   55500      0    1.68e+00    0    1.18e+00
2006 11 04  1530    54043   55800      0    1.69e+00    0    1.18e+00
2006 11 04  1535    54043   56100      0    1.64e+00    0    1.14e+00
2006 11 04  1540    54043   56400      0    1.72e+00    0    1.22e+00
2006 11 04  1545    54043   56700      0    1.72e+00    0    1.20e+00
2006 11 04  1550    54043   57000      0    1.69e+00    0    1.19e+00
2006 11 04  1555    54043   57300      0    1.68e+00    0    1.16e+00
2006 11 04  1600    54043   57600      0    1.64e+00    0    1.14e+00
2006 11 04  1605    54043   57900      0    1.68e+00    0    1.17e+00
2006 11 04  1610    54043   58200      0    1.70e+00    0    1.19e+00
2006 11 04  1615    54043   58500      0    1.63e+00    0    1.15e+00
2006 11 04  1620    54043   58800      0    1.67e+00    0    1.18e+00
2006 11 04  1625    54043   59100      0    1.69e+00    0    1.18e+00
2006 11 04  1630    54043   59400      0    1.73e+00    0    1.22e+00
2006 11 04  1635    54043   59700      0    1.70e+00    0    1.19e+00
2006 11 04  1640    54043   60000      0    1.71e+00    0    1.19e+00
2006 11 04  1645    54043   60300      0    1.68e+00    0    1.18e+00
2006 11 04  1650    54043   60600      0    1.70e+00    0    1.18e+00
2006 11 04  1655    54043   60900      0    1.68e+00    0    1.18e+00
2006 11 04  1700    54043   61200      0    1.74e+00    0    1.21e+00
2006 11 04  1705    54043   61500      0    1.71e+00    0    1.19e+00
2006 11 04  1710    54043   61800      0    1.71e+00    0    1.20e+00
2006 11 04  1715    54043   62100      0    1.73e+00    0    1.22e+00
2006 11 04  1720    54043   62400      0    1.63e+00    0    1.14e+00
2006 11 04  1725    54043   62700      0    1.70e+00    0    1.19e+00
2006 11 04  1730    54043   63000      0    1.69e+00    0    1.18e+00
2006 11 04  1735    54043   63300      0    1.69e+00    0    1.19e+00
2006 11 04  1740    54043   63600      0    1.74e+00    0    1.23e+00
2006 11 04  1745    54043   63900      0    1.67e+00    0    1.16e+00
2006 11 04  1750    54043   64200      0    1.68e+00    0    1.17e+00
2006 11 04  1755    54043   64500      0    1.70e+00    0    1.19e+00
2006 11 04  1800    54043   64800      0    1.67e+00    0    1.17e+00
2006 11 04  1805    54043   65100      0    1.68e+00    0    1.18e+00
2006 11 04  1810    54043   65400      0    1.67e+00    0    1.17e+00
2006 11 04  1815    54043   65700      0    1.63e+00    0    1.15e+00
2006 11 04  1820    54043   66000      0    1.66e+00    0    1.15e+00
2006 11 04  1825    54043   66300      0    1.68e+00    0    1.18e+00
2006 11 04  1830    54043   66600      0    1.67e+00    0    1.17e+00
2006 11 04  1835    54043   66900      0    1.71e+00    0    1.21e+00
2006 11 04  1840    54043   67200      0    1.67e+00    0    1.18e+00
2006 11 04  1845    54043   67500      0    1.66e+00    0    1.17e+00
2006 11 04  1850    54043   67800      0    1.72e+00    0    1.20e+00
2006 11 04  1855    54043   68100      0    1.73e+00    0    1.22e+00
2006 11 04  1900    54043   68400      0    1.67e+00    0    1.17e+00
2006 11 04  1905    54043   68700      0    1.66e+00    0    1.16e+00
2006 11 04  1910    54043   69000      0    1.65e+00    0    1.16e+00
2006 11 04  1915    54043   69300      0    1.70e+00    0    1.19e+00
2006 11 04  1920    54043   69600      0    1.72e+00    0    1.20e+00
2006 11 04  1925    54043   69900      0    1.67e+00    0    1.16e+00
2006 11 04  1930    54043   70200      0    1.70e+00    0    1.19e+00
2006 11 04  1935    54043   70500      0    1.70e+00    0    1.19e+00
2006 11 04  1940    54043   70800      0    1.68e+00    0    1.19e+00
2006 11 04  1945    54043   71100      0    1.70e+00    0    1.19e+00
2006 11 04  1950    54043   71400      0    1.69e+00    0    1.19e+00
2006 11 04  1955    54043   71700      0    1.68e+00    0    1.18e+00
2006 11 04  2000    54043   72000      0    1.70e+00    0    1.19e+00
2006 11 04  2005    54043   72300      0    1.67e+00    0    1.17e+00
2006 11 04  2010    54043   72600      0    1.72e+00    0    1.21e+00
2006 11 04  2015    54043   72900      0    1.70e+00    0    1.20e+00
2006 11 04  2020    54043   73200      0    1.71e+00    0    1.21e+00
2006 11 04  2025    54043   73500      0    1.66e+00    0    1.17e+00
2006 11 04  2030    54043   73800      0    1.71e+00    0    1.19e+00
2006 11 04  2035    54043   74100      0    1.71e+00    0    1.19e+00
2006 11 04  2040    54043   74400      0    1.72e+00    0    1.23e+00
2006 11 04  2045    54043   74700      0    1.66e+00    0    1.16e+00
2006 11 04  2050    54043   75000      0    1.67e+00    0    1.17e+00
2006 11 04  2055    54043   75300      0    1.69e+00    0    1.19e+00
2006 11 04  2100    54043   75600      0    1.67e+00    0    1.17e+00
2006 11 04  2105    54043   75900      0    1.68e+00    0    1.18e+00
2006 11 04  2110    54043   76200      0    1.70e+00    0    1.19e+00
2006 11 04  2115    54043   76500      9   -1.00e+05    9   -1.00e+05
2006 11 04  2120    54043   76800      9   -1.00e+05    9   -1.00e+05
2006 11 04  2125    54043   77100      0    1.67e+00    0    1.16e+00
2006 11 04  2130    54043   77400      0    1.68e+00    0    1.17e+00
2006 11 04  2135    54043   77700      0    1.69e+00    0    1.19e+00
2006 11 04  2140    54043   78000      0    1.71e+00    0    1.19e+00
2006 11 04  2145    54043   78300      0    1.69e+00    0    1.19e+00
2006 11 04  2150    54043   78600      0    1.66e+00    0    1.15e+00
2006 11 04  2155    54043   78900      0    1.69e+00    0    1.18e+00
2006 11 04  2200    54043   79200      0    1.71e+00    0    1.19e+00
2006 11 04  2205    54043   79500      0    1.69e+00    0    1.17e+00
2006 11 04  2210    54043   79800      0    1.69e+00    0    1.19e+00
2006 11 04  2215    54043   80100      0    1.69e+00    0    1.19e+00
2006 11 04  2220    54043   80400      0    1.70e+00    0    1.20e+00
2006 11 04  2225    54043   80700      0    1.69e+00    0    1.18e+00
2006 11 04  2230    54043   81000      0    1.72e+00    0    1.19e+00
2006 11 04  2235    54043   81300      0    1.70e+00    0    1.19e+00
2006 11 04  2240    54043   81600      0    1.69e+00    0    1.19e+00
2006 11 04  2245    54043   81900      0    1.69e+00    0    1.18e+00
2006 11 04  2250    54043   82200      0    1.69e+00    0    1.18e+00
2006 11 04  2255    54043   82500      0    1.68e+00    0    1.17e+00
2006 11 04  2300    54043   82800      0    1.66e+00    0    1.16e+00
2006 11 04  2305    54043   83100      0    1.65e+00    0    1.16e+00
2006 11 04  2310    54043   83400      0    1.69e+00    0    1.18e+00
2006 11 04  2315    54043   83700      0    1.71e+00    0    1.20e+00
2006 11 04  2320    54043   84000      0    1.72e+00    0    1.21e+00
2006 11 04  2325    54043   84300      0    1.66e+00    0    1.17e+00
2006 11 04  2330    54043   84600      0    1.68e+00    0    1.18e+00
2006 11 04  2335    54043   84900      0    1.68e+00    0    1.17e+00
2006 11 04  2340    54043   85200      0    1.68e+00    0    1.18e+00
2006 11 04  2345    54043   85500      0    1.69e+00    0    1.19e+00
2006 11 04  2350    54043   85800      0    1.73e+00    0    1.21e+00
2006 11 04  2355    54043   86100      0    1.70e+00    0    1.18e+00
