:Data_list: 20060421_ace_sis_5m.txt
:Created: 2006 Apr 22 0011 UT
# Prepared by the U.S. Dept. of Commerce, NOAA, Space Environment Center.
# Please send comments and suggestions to SEC.Webmaster@noaa.gov 
# 
# Units: proton flux p/cs2-sec-ster
# Status(S): 0 = nominal data, 1 to 8 = bad data record, 9 = no data
# Missing data values: -1.00e+05
# Source: ACE Satellite - Solar Isotope Spectrometer
#
# 5-minute averaged Real-time Integral Flux of High-energy Solar Protons
# 
#                 Modified Seconds
# UT Date   Time   Julian  of the      ---- Integral Proton Flux ----
# YR MO DA  HHMM     Day     Day       S    > 10 MeV    S    > 30 MeV
#--------------------------------------------------------------------
2006 04 21  0000    53846       0      0    1.55e+00    0    1.09e+00
2006 04 21  0005    53846     300      0    1.57e+00    0    1.12e+00
2006 04 21  0010    53846     600      0    1.58e+00    0    1.11e+00
2006 04 21  0015    53846     900      0    1.49e+00    0    1.04e+00
2006 04 21  0020    53846    1200      0    1.56e+00    0    1.08e+00
2006 04 21  0025    53846    1500      0    1.53e+00    0    1.07e+00
2006 04 21  0030    53846    1800      0    1.59e+00    0    1.13e+00
2006 04 21  0035    53846    2100      0    1.56e+00    0    1.10e+00
2006 04 21  0040    53846    2400      0    1.55e+00    0    1.08e+00
2006 04 21  0045    53846    2700      0    1.58e+00    0    1.12e+00
2006 04 21  0050    53846    3000      0    1.58e+00    0    1.11e+00
2006 04 21  0055    53846    3300      0    1.59e+00    0    1.10e+00
2006 04 21  0100    53846    3600      0    1.59e+00    0    1.13e+00
2006 04 21  0105    53846    3900      0    1.54e+00    0    1.08e+00
2006 04 21  0110    53846    4200      0    1.54e+00    0    1.07e+00
2006 04 21  0115    53846    4500      0    1.60e+00    0    1.12e+00
2006 04 21  0120    53846    4800      0    1.64e+00    0    1.15e+00
2006 04 21  0125    53846    5100      0    1.58e+00    0    1.10e+00
2006 04 21  0130    53846    5400      0    1.54e+00    0    1.09e+00
2006 04 21  0135    53846    5700      0    1.56e+00    0    1.09e+00
2006 04 21  0140    53846    6000      0    1.57e+00    0    1.10e+00
2006 04 21  0145    53846    6300      0    1.57e+00    0    1.10e+00
2006 04 21  0150    53846    6600      0    1.57e+00    0    1.11e+00
2006 04 21  0155    53846    6900      0    1.59e+00    0    1.12e+00
2006 04 21  0200    53846    7200      0    1.59e+00    0    1.11e+00
2006 04 21  0205    53846    7500      0    1.58e+00    0    1.09e+00
2006 04 21  0210    53846    7800      0    1.57e+00    0    1.10e+00
2006 04 21  0215    53846    8100      0    1.57e+00    0    1.10e+00
2006 04 21  0220    53846    8400      0    1.59e+00    0    1.12e+00
2006 04 21  0225    53846    8700      0    1.60e+00    0    1.11e+00
2006 04 21  0230    53846    9000      0    1.57e+00    0    1.10e+00
2006 04 21  0235    53846    9300      0    1.59e+00    0    1.13e+00
2006 04 21  0240    53846    9600      0    1.59e+00    0    1.11e+00
2006 04 21  0245    53846    9900      0    1.56e+00    0    1.10e+00
2006 04 21  0250    53846   10200      0    1.57e+00    0    1.10e+00
2006 04 21  0255    53846   10500      0    1.59e+00    0    1.12e+00
2006 04 21  0300    53846   10800      0    1.58e+00    0    1.10e+00
2006 04 21  0305    53846   11100      0    1.61e+00    0    1.13e+00
2006 04 21  0310    53846   11400      0    1.57e+00    0    1.10e+00
2006 04 21  0315    53846   11700      0    1.58e+00    0    1.10e+00
2006 04 21  0320    53846   12000      0    1.59e+00    0    1.12e+00
2006 04 21  0325    53846   12300      0    1.58e+00    0    1.11e+00
2006 04 21  0330    53846   12600      0    1.61e+00    0    1.13e+00
2006 04 21  0335    53846   12900      0    1.60e+00    0    1.12e+00
2006 04 21  0340    53846   13200      0    1.61e+00    0    1.12e+00
2006 04 21  0345    53846   13500      0    1.59e+00    0    1.13e+00
2006 04 21  0350    53846   13800      0    1.59e+00    0    1.12e+00
2006 04 21  0355    53846   14100      0    1.51e+00    0    1.04e+00
2006 04 21  0400    53846   14400      0    1.54e+00    0    1.08e+00
2006 04 21  0405    53846   14700      0    1.60e+00    0    1.12e+00
2006 04 21  0410    53846   15000      0    1.57e+00    0    1.10e+00
2006 04 21  0415    53846   15300      0    1.63e+00    0    1.15e+00
2006 04 21  0420    53846   15600      0    1.56e+00    0    1.10e+00
2006 04 21  0425    53846   15900      0    1.58e+00    0    1.11e+00
2006 04 21  0430    53846   16200      0    1.62e+00    0    1.13e+00
2006 04 21  0435    53846   16500      0    1.60e+00    0    1.12e+00
2006 04 21  0440    53846   16800      0    1.58e+00    0    1.10e+00
2006 04 21  0445    53846   17100      0    1.60e+00    0    1.13e+00
2006 04 21  0450    53846   17400      0    1.60e+00    0    1.12e+00
2006 04 21  0455    53846   17700      0    1.65e+00    0    1.15e+00
2006 04 21  0500    53846   18000      0    1.60e+00    0    1.12e+00
2006 04 21  0505    53846   18300      0    1.57e+00    0    1.10e+00
2006 04 21  0510    53846   18600      0    1.61e+00    0    1.13e+00
2006 04 21  0515    53846   18900      0    1.58e+00    0    1.11e+00
2006 04 21  0520    53846   19200      0    1.58e+00    0    1.10e+00
2006 04 21  0525    53846   19500      0    1.58e+00    0    1.10e+00
2006 04 21  0530    53846   19800      0    1.56e+00    0    1.09e+00
2006 04 21  0535    53846   20100      0    1.60e+00    0    1.12e+00
2006 04 21  0540    53846   20400      0    1.59e+00    0    1.12e+00
2006 04 21  0545    53846   20700      0    1.56e+00    0    1.10e+00
2006 04 21  0550    53846   21000      0    1.62e+00    0    1.14e+00
2006 04 21  0555    53846   21300      0    1.60e+00    0    1.13e+00
2006 04 21  0600    53846   21600      0    1.60e+00    0    1.12e+00
2006 04 21  0605    53846   21900      0    1.63e+00    0    1.14e+00
2006 04 21  0610    53846   22200      0    1.61e+00    0    1.13e+00
2006 04 21  0615    53846   22500      0    1.62e+00    0    1.15e+00
2006 04 21  0620    53846   22800      0    1.61e+00    0    1.13e+00
2006 04 21  0625    53846   23100      0    1.58e+00    0    1.11e+00
2006 04 21  0630    53846   23400      0    1.59e+00    0    1.12e+00
2006 04 21  0635    53846   23700      0    1.58e+00    0    1.10e+00
2006 04 21  0640    53846   24000      0    1.62e+00    0    1.13e+00
2006 04 21  0645    53846   24300      0    1.60e+00    0    1.13e+00
2006 04 21  0650    53846   24600      0    1.62e+00    0    1.13e+00
2006 04 21  0655    53846   24900      0    1.58e+00    0    1.09e+00
2006 04 21  0700    53846   25200      0    1.58e+00    0    1.10e+00
2006 04 21  0705    53846   25500      0    1.60e+00    0    1.12e+00
2006 04 21  0710    53846   25800      0    1.66e+00    0    1.16e+00
2006 04 21  0715    53846   26100      0    1.56e+00    0    1.09e+00
2006 04 21  0720    53846   26400      0    1.58e+00    0    1.12e+00
2006 04 21  0725    53846   26700      0    1.59e+00    0    1.11e+00
2006 04 21  0730    53846   27000      0    1.61e+00    0    1.14e+00
2006 04 21  0735    53846   27300      0    1.58e+00    0    1.12e+00
2006 04 21  0740    53846   27600      0    1.63e+00    0    1.14e+00
2006 04 21  0745    53846   27900      0    1.60e+00    0    1.12e+00
2006 04 21  0750    53846   28200      0    1.59e+00    0    1.11e+00
2006 04 21  0755    53846   28500      0    1.63e+00    0    1.15e+00
2006 04 21  0800    53846   28800      0    1.57e+00    0    1.10e+00
2006 04 21  0805    53846   29100      0    1.57e+00    0    1.10e+00
2006 04 21  0810    53846   29400      0    1.61e+00    0    1.13e+00
2006 04 21  0815    53846   29700      0    1.59e+00    0    1.11e+00
2006 04 21  0820    53846   30000      0    1.61e+00    0    1.13e+00
2006 04 21  0825    53846   30300      0    1.60e+00    0    1.13e+00
2006 04 21  0830    53846   30600      0    1.62e+00    0    1.14e+00
2006 04 21  0835    53846   30900      0    1.57e+00    0    1.11e+00
2006 04 21  0840    53846   31200      0    1.61e+00    0    1.13e+00
2006 04 21  0845    53846   31500      0    1.66e+00    0    1.17e+00
2006 04 21  0850    53846   31800      0    1.58e+00    0    1.10e+00
2006 04 21  0855    53846   32100      0    1.61e+00    0    1.13e+00
2006 04 21  0900    53846   32400      0    1.62e+00    0    1.13e+00
2006 04 21  0905    53846   32700      0    1.57e+00    0    1.11e+00
2006 04 21  0910    53846   33000      0    1.62e+00    0    1.14e+00
2006 04 21  0915    53846   33300      0    1.59e+00    0    1.12e+00
2006 04 21  0920    53846   33600      0    1.57e+00    0    1.10e+00
2006 04 21  0925    53846   33900      0    1.62e+00    0    1.14e+00
2006 04 21  0930    53846   34200      0    1.60e+00    0    1.15e+00
2006 04 21  0935    53846   34500      0    1.59e+00    0    1.14e+00
2006 04 21  0940    53846   34800      0    1.64e+00    0    1.14e+00
2006 04 21  0945    53846   35100      0    1.57e+00    0    1.11e+00
2006 04 21  0950    53846   35400      0    1.58e+00    0    1.11e+00
2006 04 21  0955    53846   35700      0    1.59e+00    0    1.11e+00
2006 04 21  1000    53846   36000      0    1.58e+00    0    1.11e+00
2006 04 21  1005    53846   36300      0    1.60e+00    0    1.12e+00
2006 04 21  1010    53846   36600      0    1.60e+00    0    1.13e+00
2006 04 21  1015    53846   36900      0    1.58e+00    0    1.11e+00
2006 04 21  1020    53846   37200      0    1.59e+00    0    1.11e+00
2006 04 21  1025    53846   37500      0    1.60e+00    0    1.11e+00
2006 04 21  1030    53846   37800      0    1.58e+00    0    1.10e+00
2006 04 21  1035    53846   38100      0    1.62e+00    0    1.13e+00
2006 04 21  1040    53846   38400      0    1.61e+00    0    1.14e+00
2006 04 21  1045    53846   38700      0    1.59e+00    0    1.12e+00
2006 04 21  1050    53846   39000      0    1.61e+00    0    1.14e+00
2006 04 21  1055    53846   39300      0    1.62e+00    0    1.13e+00
2006 04 21  1100    53846   39600      0    1.58e+00    0    1.11e+00
2006 04 21  1105    53846   39900      0    1.60e+00    0    1.12e+00
2006 04 21  1110    53846   40200      0    1.57e+00    0    1.10e+00
2006 04 21  1115    53846   40500      0    1.60e+00    0    1.12e+00
2006 04 21  1120    53846   40800      0    1.58e+00    0    1.10e+00
2006 04 21  1125    53846   41100      0    1.58e+00    0    1.11e+00
2006 04 21  1130    53846   41400      0    1.57e+00    0    1.10e+00
2006 04 21  1135    53846   41700      0    1.58e+00    0    1.11e+00
2006 04 21  1140    53846   42000      0    1.61e+00    0    1.13e+00
2006 04 21  1145    53846   42300      0    1.58e+00    0    1.11e+00
2006 04 21  1150    53846   42600      0    1.61e+00    0    1.14e+00
2006 04 21  1155    53846   42900      0    1.60e+00    0    1.12e+00
2006 04 21  1200    53846   43200      0    1.58e+00    0    1.10e+00
2006 04 21  1205    53846   43500      0    1.61e+00    0    1.12e+00
2006 04 21  1210    53846   43800      0    1.59e+00    0    1.12e+00
2006 04 21  1215    53846   44100      0    1.59e+00    0    1.10e+00
2006 04 21  1220    53846   44400      0    1.60e+00    0    1.12e+00
2006 04 21  1225    53846   44700      0    1.60e+00    0    1.11e+00
2006 04 21  1230    53846   45000      0    1.60e+00    0    1.13e+00
2006 04 21  1235    53846   45300      0    1.58e+00    0    1.11e+00
2006 04 21  1240    53846   45600      0    1.52e+00    0    1.07e+00
2006 04 21  1245    53846   45900      0    1.61e+00    0    1.14e+00
2006 04 21  1250    53846   46200      0    1.56e+00    0    1.10e+00
2006 04 21  1255    53846   46500      0    1.59e+00    0    1.11e+00
2006 04 21  1300    53846   46800      0    1.58e+00    0    1.10e+00
2006 04 21  1305    53846   47100      0    1.60e+00    0    1.11e+00
2006 04 21  1310    53846   47400      0    1.62e+00    0    1.14e+00
2006 04 21  1315    53846   47700      0    1.57e+00    0    1.09e+00
2006 04 21  1320    53846   48000      0    1.61e+00    0    1.12e+00
2006 04 21  1325    53846   48300      0    1.60e+00    0    1.13e+00
2006 04 21  1330    53846   48600      0    1.61e+00    0    1.13e+00
2006 04 21  1335    53846   48900      0    1.58e+00    0    1.12e+00
2006 04 21  1340    53846   49200      0    1.59e+00    0    1.11e+00
2006 04 21  1345    53846   49500      0    1.60e+00    0    1.13e+00
2006 04 21  1350    53846   49800      0    1.58e+00    0    1.12e+00
2006 04 21  1355    53846   50100      0    1.63e+00    0    1.17e+00
2006 04 21  1400    53846   50400      0    1.60e+00    0    1.12e+00
2006 04 21  1405    53846   50700      0    1.60e+00    0    1.12e+00
2006 04 21  1410    53846   51000      0    1.59e+00    0    1.12e+00
2006 04 21  1415    53846   51300      0    1.57e+00    0    1.09e+00
2006 04 21  1420    53846   51600      0    1.59e+00    0    1.11e+00
2006 04 21  1425    53846   51900      0    1.62e+00    0    1.14e+00
2006 04 21  1430    53846   52200      0    1.61e+00    0    1.13e+00
2006 04 21  1435    53846   52500      0    1.57e+00    0    1.11e+00
2006 04 21  1440    53846   52800      0    1.60e+00    0    1.12e+00
2006 04 21  1445    53846   53100      0    1.60e+00    0    1.13e+00
2006 04 21  1450    53846   53400      0    1.62e+00    0    1.13e+00
2006 04 21  1455    53846   53700      0    1.60e+00    0    1.12e+00
2006 04 21  1500    53846   54000      0    1.56e+00    0    1.11e+00
2006 04 21  1505    53846   54300      0    1.62e+00    0    1.13e+00
2006 04 21  1510    53846   54600      0    1.60e+00    0    1.12e+00
2006 04 21  1515    53846   54900      0    1.59e+00    0    1.12e+00
2006 04 21  1520    53846   55200      0    1.60e+00    0    1.12e+00
2006 04 21  1525    53846   55500      0    1.63e+00    0    1.14e+00
2006 04 21  1530    53846   55800      0    1.56e+00    0    1.09e+00
2006 04 21  1535    53846   56100      0    1.56e+00    0    1.09e+00
2006 04 21  1540    53846   56400      0    1.57e+00    0    1.11e+00
2006 04 21  1545    53846   56700      0    1.59e+00    0    1.12e+00
2006 04 21  1550    53846   57000      0    1.58e+00    0    1.11e+00
2006 04 21  1555    53846   57300      0    1.60e+00    0    1.12e+00
2006 04 21  1600    53846   57600      0    1.56e+00    0    1.10e+00
2006 04 21  1605    53846   57900      0    1.61e+00    0    1.14e+00
2006 04 21  1610    53846   58200      0    1.54e+00    0    1.09e+00
2006 04 21  1615    53846   58500      0    1.61e+00    0    1.12e+00
2006 04 21  1620    53846   58800      0    1.57e+00    0    1.09e+00
2006 04 21  1625    53846   59100      0    1.62e+00    0    1.15e+00
2006 04 21  1630    53846   59400      0    1.63e+00    0    1.15e+00
2006 04 21  1635    53846   59700      0    1.57e+00    0    1.11e+00
2006 04 21  1640    53846   60000      0    1.61e+00    0    1.12e+00
2006 04 21  1645    53846   60300      0    1.59e+00    0    1.10e+00
2006 04 21  1650    53846   60600      0    1.63e+00    0    1.14e+00
2006 04 21  1655    53846   60900      0    1.57e+00    0    1.10e+00
2006 04 21  1700    53846   61200      0    1.59e+00    0    1.11e+00
2006 04 21  1705    53846   61500      0    1.60e+00    0    1.11e+00
2006 04 21  1710    53846   61800      0    1.60e+00    0    1.14e+00
2006 04 21  1715    53846   62100      0    1.54e+00    0    1.08e+00
2006 04 21  1720    53846   62400      0    1.58e+00    0    1.12e+00
2006 04 21  1725    53846   62700      0    1.57e+00    0    1.10e+00
2006 04 21  1730    53846   63000      0    1.60e+00    0    1.12e+00
2006 04 21  1735    53846   63300      0    1.56e+00    0    1.10e+00
2006 04 21  1740    53846   63600      0    1.60e+00    0    1.12e+00
2006 04 21  1745    53846   63900      0    1.58e+00    0    1.11e+00
2006 04 21  1750    53846   64200      0    1.63e+00    0    1.16e+00
2006 04 21  1755    53846   64500      0    1.58e+00    0    1.13e+00
2006 04 21  1800    53846   64800      0    1.62e+00    0    1.14e+00
2006 04 21  1805    53846   65100      0    1.58e+00    0    1.11e+00
2006 04 21  1810    53846   65400      0    1.55e+00    0    1.09e+00
2006 04 21  1815    53846   65700      0    1.54e+00    0    1.09e+00
2006 04 21  1820    53846   66000      0    1.58e+00    0    1.10e+00
2006 04 21  1825    53846   66300      0    1.62e+00    0    1.14e+00
2006 04 21  1830    53846   66600      0    1.59e+00    0    1.12e+00
2006 04 21  1835    53846   66900      0    1.59e+00    0    1.12e+00
2006 04 21  1840    53846   67200      0    1.59e+00    0    1.12e+00
2006 04 21  1845    53846   67500      0    1.59e+00    0    1.12e+00
2006 04 21  1850    53846   67800      0    1.58e+00    0    1.10e+00
2006 04 21  1855    53846   68100      0    1.60e+00    0    1.13e+00
2006 04 21  1900    53846   68400      0    1.58e+00    0    1.10e+00
2006 04 21  1905    53846   68700      0    1.58e+00    0    1.10e+00
2006 04 21  1910    53846   69000      0    1.61e+00    0    1.13e+00
2006 04 21  1915    53846   69300      0    1.57e+00    0    1.09e+00
2006 04 21  1920    53846   69600      0    1.60e+00    0    1.13e+00
2006 04 21  1925    53846   69900      0    1.55e+00    0    1.09e+00
2006 04 21  1930    53846   70200      0    1.58e+00    0    1.11e+00
2006 04 21  1935    53846   70500      0    1.60e+00    0    1.12e+00
2006 04 21  1940    53846   70800      0    1.57e+00    0    1.10e+00
2006 04 21  1945    53846   71100      0    1.56e+00    0    1.10e+00
2006 04 21  1950    53846   71400      0    1.59e+00    0    1.11e+00
2006 04 21  1955    53846   71700      0    1.60e+00    0    1.12e+00
2006 04 21  2000    53846   72000      0    1.62e+00    0    1.15e+00
2006 04 21  2005    53846   72300      0    1.60e+00    0    1.11e+00
2006 04 21  2010    53846   72600      0    1.58e+00    0    1.10e+00
2006 04 21  2015    53846   72900      0    1.59e+00    0    1.12e+00
2006 04 21  2020    53846   73200      0    1.59e+00    0    1.12e+00
2006 04 21  2025    53846   73500      0    1.58e+00    0    1.12e+00
2006 04 21  2030    53846   73800      0    1.62e+00    0    1.13e+00
2006 04 21  2035    53846   74100      0    1.54e+00    0    1.07e+00
2006 04 21  2040    53846   74400      0    1.56e+00    0    1.10e+00
2006 04 21  2045    53846   74700      0    1.62e+00    0    1.13e+00
2006 04 21  2050    53846   75000      0    1.55e+00    0    1.08e+00
2006 04 21  2055    53846   75300      0    1.60e+00    0    1.13e+00
2006 04 21  2100    53846   75600      0    1.58e+00    0    1.11e+00
2006 04 21  2105    53846   75900      0    1.60e+00    0    1.12e+00
2006 04 21  2110    53846   76200      0    1.61e+00    0    1.13e+00
2006 04 21  2115    53846   76500      0    1.59e+00    0    1.13e+00
2006 04 21  2120    53846   76800      0    1.62e+00    0    1.13e+00
2006 04 21  2125    53846   77100      0    1.62e+00    0    1.14e+00
2006 04 21  2130    53846   77400      0    1.60e+00    0    1.13e+00
2006 04 21  2135    53846   77700      0    1.61e+00    0    1.13e+00
2006 04 21  2140    53846   78000      0    1.61e+00    0    1.13e+00
2006 04 21  2145    53846   78300      0    1.57e+00    0    1.10e+00
2006 04 21  2150    53846   78600      0    1.59e+00    0    1.11e+00
2006 04 21  2155    53846   78900      0    1.59e+00    0    1.11e+00
2006 04 21  2200    53846   79200      0    1.58e+00    0    1.11e+00
2006 04 21  2205    53846   79500      0    1.60e+00    0    1.13e+00
2006 04 21  2210    53846   79800      0    1.60e+00    0    1.12e+00
2006 04 21  2215    53846   80100      0    1.57e+00    0    1.09e+00
2006 04 21  2220    53846   80400      0    1.61e+00    0    1.13e+00
2006 04 21  2225    53846   80700      0    1.57e+00    0    1.10e+00
2006 04 21  2230    53846   81000      0    1.60e+00    0    1.13e+00
2006 04 21  2235    53846   81300      0    1.55e+00    0    1.09e+00
2006 04 21  2240    53846   81600      0    1.57e+00    0    1.10e+00
2006 04 21  2245    53846   81900      0    1.55e+00    0    1.09e+00
2006 04 21  2250    53846   82200      0    1.54e+00    0    1.08e+00
2006 04 21  2255    53846   82500      0    1.57e+00    0    1.09e+00
2006 04 21  2300    53846   82800      0    1.58e+00    0    1.11e+00
2006 04 21  2305    53846   83100      0    1.56e+00    0    1.09e+00
2006 04 21  2310    53846   83400      0    1.54e+00    0    1.08e+00
2006 04 21  2315    53846   83700      0    1.58e+00    0    1.11e+00
2006 04 21  2320    53846   84000      0    1.60e+00    0    1.12e+00
2006 04 21  2325    53846   84300      0    1.60e+00    0    1.13e+00
2006 04 21  2330    53846   84600      0    1.60e+00    0    1.13e+00
2006 04 21  2335    53846   84900      0    1.59e+00    0    1.11e+00
2006 04 21  2340    53846   85200      0    1.56e+00    0    1.09e+00
2006 04 21  2345    53846   85500      0    1.59e+00    0    1.11e+00
2006 04 21  2350    53846   85800      0    1.57e+00    0    1.10e+00
2006 04 21  2355    53846   86100      0    1.61e+00    0    1.13e+00
