:Data_list: 20061129_ace_sis_5m.txt
:Created: 2006 Nov 30 0011 UT
# Prepared by the U.S. Dept. of Commerce, NOAA, Space Environment Center.
# Please send comments and suggestions to SEC.Webmaster@noaa.gov 
# 
# Units: proton flux p/cs2-sec-ster
# Status(S): 0 = nominal data, 1 to 8 = bad data record, 9 = no data
# Missing data values: -1.00e+05
# Source: ACE Satellite - Solar Isotope Spectrometer
#
# 5-minute averaged Real-time Integral Flux of High-energy Solar Protons
# 
#                 Modified Seconds
# UT Date   Time   Julian  of the      ---- Integral Proton Flux ----
# YR MO DA  HHMM     Day     Day       S    > 10 MeV    S    > 30 MeV
#--------------------------------------------------------------------
2006 11 29  0000    54068       0      9   -1.00e+05    9   -1.00e+05
2006 11 29  0005    54068     300      9   -1.00e+05    9   -1.00e+05
2006 11 29  0010    54068     600      9   -1.00e+05    9   -1.00e+05
2006 11 29  0015    54068     900      9   -1.00e+05    9   -1.00e+05
2006 11 29  0020    54068    1200      9   -1.00e+05    9   -1.00e+05
2006 11 29  0025    54068    1500      9   -1.00e+05    9   -1.00e+05
2006 11 29  0030    54068    1800      9   -1.00e+05    9   -1.00e+05
2006 11 29  0035    54068    2100      9   -1.00e+05    9   -1.00e+05
2006 11 29  0040    54068    2400      9   -1.00e+05    9   -1.00e+05
2006 11 29  0045    54068    2700      9   -1.00e+05    9   -1.00e+05
2006 11 29  0050    54068    3000      9   -1.00e+05    9   -1.00e+05
2006 11 29  0055    54068    3300      9   -1.00e+05    9   -1.00e+05
2006 11 29  0100    54068    3600      9   -1.00e+05    9   -1.00e+05
2006 11 29  0105    54068    3900      9   -1.00e+05    9   -1.00e+05
2006 11 29  0110    54068    4200      9   -1.00e+05    9   -1.00e+05
2006 11 29  0115    54068    4500      0    1.77e+00    0    1.25e+00
2006 11 29  0120    54068    4800      0    1.78e+00    0    1.25e+00
2006 11 29  0125    54068    5100      0    1.77e+00    0    1.24e+00
2006 11 29  0130    54068    5400      0    1.77e+00    0    1.25e+00
2006 11 29  0135    54068    5700      0    1.76e+00    0    1.23e+00
2006 11 29  0140    54068    6000      0    1.76e+00    0    1.23e+00
2006 11 29  0145    54068    6300      0    1.74e+00    0    1.22e+00
2006 11 29  0150    54068    6600      0    1.75e+00    0    1.23e+00
2006 11 29  0155    54068    6900      0    1.76e+00    0    1.25e+00
2006 11 29  0200    54068    7200      0    1.75e+00    0    1.24e+00
2006 11 29  0205    54068    7500      0    1.74e+00    0    1.22e+00
2006 11 29  0210    54068    7800      0    1.77e+00    0    1.24e+00
2006 11 29  0215    54068    8100      0    1.76e+00    0    1.23e+00
2006 11 29  0220    54068    8400      0    1.75e+00    0    1.23e+00
2006 11 29  0225    54068    8700      0    1.76e+00    0    1.23e+00
2006 11 29  0230    54068    9000      0    1.76e+00    0    1.24e+00
2006 11 29  0235    54068    9300      0    1.74e+00    0    1.23e+00
2006 11 29  0240    54068    9600      0    1.73e+00    0    1.21e+00
2006 11 29  0245    54068    9900      0    1.74e+00    0    1.22e+00
2006 11 29  0250    54068   10200      0    1.75e+00    0    1.23e+00
2006 11 29  0255    54068   10500      0    1.78e+00    0    1.24e+00
2006 11 29  0300    54068   10800      9   -1.00e+05    9   -1.00e+05
2006 11 29  0305    54068   11100      9   -1.00e+05    9   -1.00e+05
2006 11 29  0310    54068   11400      9   -1.00e+05    9   -1.00e+05
2006 11 29  0315    54068   11700      9   -1.00e+05    9   -1.00e+05
2006 11 29  0320    54068   12000      9   -1.00e+05    9   -1.00e+05
2006 11 29  0325    54068   12300      9   -1.00e+05    9   -1.00e+05
2006 11 29  0330    54068   12600      9   -1.00e+05    9   -1.00e+05
2006 11 29  0335    54068   12900      9   -1.00e+05    9   -1.00e+05
2006 11 29  0340    54068   13200      9   -1.00e+05    9   -1.00e+05
2006 11 29  0345    54068   13500      9   -1.00e+05    9   -1.00e+05
2006 11 29  0350    54068   13800      9   -1.00e+05    9   -1.00e+05
2006 11 29  0355    54068   14100      9   -1.00e+05    9   -1.00e+05
2006 11 29  0400    54068   14400      0    1.70e+00    0    1.19e+00
2006 11 29  0405    54068   14700      0    1.74e+00    0    1.21e+00
2006 11 29  0410    54068   15000      0    1.71e+00    0    1.20e+00
2006 11 29  0415    54068   15300      0    1.73e+00    0    1.22e+00
2006 11 29  0420    54068   15600      0    1.68e+00    0    1.18e+00
2006 11 29  0425    54068   15900      0    1.73e+00    0    1.22e+00
2006 11 29  0430    54068   16200      0    1.71e+00    0    1.20e+00
2006 11 29  0435    54068   16500      0    1.72e+00    0    1.20e+00
2006 11 29  0440    54068   16800      0    1.72e+00    0    1.21e+00
2006 11 29  0445    54068   17100      0    1.73e+00    0    1.21e+00
2006 11 29  0450    54068   17400      0    1.75e+00    0    1.23e+00
2006 11 29  0455    54068   17700      0    1.76e+00    0    1.24e+00
2006 11 29  0500    54068   18000      0    1.76e+00    0    1.24e+00
2006 11 29  0505    54068   18300      0    1.79e+00    0    1.24e+00
2006 11 29  0510    54068   18600      0    1.75e+00    0    1.24e+00
2006 11 29  0515    54068   18900      0    1.70e+00    0    1.19e+00
2006 11 29  0520    54068   19200      0    1.72e+00    0    1.20e+00
2006 11 29  0525    54068   19500      0    1.72e+00    0    1.21e+00
2006 11 29  0530    54068   19800      0    1.70e+00    0    1.19e+00
2006 11 29  0535    54068   20100      0    1.74e+00    0    1.21e+00
2006 11 29  0540    54068   20400      0    1.72e+00    0    1.20e+00
2006 11 29  0545    54068   20700      0    1.69e+00    0    1.18e+00
2006 11 29  0550    54068   21000      0    1.72e+00    0    1.21e+00
2006 11 29  0555    54068   21300      0    1.71e+00    0    1.19e+00
2006 11 29  0600    54068   21600      0    1.71e+00    0    1.19e+00
2006 11 29  0605    54068   21900      0    1.70e+00    0    1.20e+00
2006 11 29  0610    54068   22200      0    1.67e+00    0    1.18e+00
2006 11 29  0615    54068   22500      0    1.65e+00    0    1.16e+00
2006 11 29  0620    54068   22800      0    1.64e+00    0    1.15e+00
2006 11 29  0625    54068   23100      0    1.69e+00    0    1.18e+00
2006 11 29  0630    54068   23400      0    1.68e+00    0    1.17e+00
2006 11 29  0635    54068   23700      0    1.67e+00    0    1.16e+00
2006 11 29  0640    54068   24000      0    1.64e+00    0    1.15e+00
2006 11 29  0645    54068   24300      0    1.68e+00    0    1.18e+00
2006 11 29  0650    54068   24600      0    1.64e+00    0    1.15e+00
2006 11 29  0655    54068   24900      0    1.71e+00    0    1.19e+00
2006 11 29  0700    54068   25200      0    1.68e+00    0    1.17e+00
2006 11 29  0705    54068   25500      0    1.65e+00    0    1.16e+00
2006 11 29  0710    54068   25800      0    1.61e+00    0    1.14e+00
2006 11 29  0715    54068   26100      0    1.65e+00    0    1.15e+00
2006 11 29  0720    54068   26400      0    1.65e+00    0    1.17e+00
2006 11 29  0725    54068   26700      0    1.63e+00    0    1.13e+00
2006 11 29  0730    54068   27000      0    1.68e+00    0    1.18e+00
2006 11 29  0735    54068   27300      0    1.63e+00    0    1.14e+00
2006 11 29  0740    54068   27600      0    1.64e+00    0    1.15e+00
2006 11 29  0745    54068   27900      0    1.65e+00    0    1.16e+00
2006 11 29  0750    54068   28200      0    1.66e+00    0    1.16e+00
2006 11 29  0755    54068   28500      0    1.66e+00    0    1.17e+00
2006 11 29  0800    54068   28800      0    1.67e+00    0    1.18e+00
2006 11 29  0805    54068   29100      0    1.66e+00    0    1.17e+00
2006 11 29  0810    54068   29400      0    1.65e+00    0    1.16e+00
2006 11 29  0815    54068   29700      0    1.64e+00    0    1.15e+00
2006 11 29  0820    54068   30000      0    1.66e+00    0    1.16e+00
2006 11 29  0825    54068   30300      0    1.63e+00    0    1.14e+00
2006 11 29  0830    54068   30600      0    1.63e+00    0    1.15e+00
2006 11 29  0835    54068   30900      0    1.64e+00    0    1.15e+00
2006 11 29  0840    54068   31200      0    1.66e+00    0    1.17e+00
2006 11 29  0845    54068   31500      0    1.65e+00    0    1.15e+00
2006 11 29  0850    54068   31800      0    1.65e+00    0    1.14e+00
2006 11 29  0855    54068   32100      0    1.71e+00    0    1.20e+00
2006 11 29  0900    54068   32400      0    1.66e+00    0    1.17e+00
2006 11 29  0905    54068   32700      0    1.66e+00    0    1.16e+00
2006 11 29  0910    54068   33000      0    1.67e+00    0    1.17e+00
2006 11 29  0915    54068   33300      0    1.62e+00    0    1.12e+00
2006 11 29  0920    54068   33600      0    1.67e+00    0    1.18e+00
2006 11 29  0925    54068   33900      0    1.63e+00    0    1.15e+00
2006 11 29  0930    54068   34200      0    1.69e+00    0    1.19e+00
2006 11 29  0935    54068   34500      0    1.64e+00    0    1.15e+00
2006 11 29  0940    54068   34800      0    1.61e+00    0    1.12e+00
2006 11 29  0945    54068   35100      0    1.63e+00    0    1.15e+00
2006 11 29  0950    54068   35400      0    1.64e+00    0    1.16e+00
2006 11 29  0955    54068   35700      0    1.64e+00    0    1.15e+00
2006 11 29  1000    54068   36000      0    1.62e+00    0    1.14e+00
2006 11 29  1005    54068   36300      0    1.66e+00    0    1.16e+00
2006 11 29  1010    54068   36600      0    1.63e+00    0    1.14e+00
2006 11 29  1015    54068   36900      0    1.65e+00    0    1.16e+00
2006 11 29  1020    54068   37200      0    1.60e+00    0    1.11e+00
2006 11 29  1025    54068   37500      0    1.62e+00    0    1.13e+00
2006 11 29  1030    54068   37800      0    1.63e+00    0    1.14e+00
2006 11 29  1035    54068   38100      0    1.63e+00    0    1.15e+00
2006 11 29  1040    54068   38400      0    1.66e+00    0    1.16e+00
2006 11 29  1045    54068   38700      0    1.63e+00    0    1.14e+00
2006 11 29  1050    54068   39000      0    1.63e+00    0    1.15e+00
2006 11 29  1055    54068   39300      0    1.62e+00    0    1.14e+00
2006 11 29  1100    54068   39600      0    1.70e+00    0    1.19e+00
2006 11 29  1105    54068   39900      0    1.63e+00    0    1.16e+00
2006 11 29  1110    54068   40200      0    1.66e+00    0    1.18e+00
2006 11 29  1115    54068   40500      0    1.65e+00    0    1.15e+00
2006 11 29  1120    54068   40800      0    1.72e+00    0    1.20e+00
2006 11 29  1125    54068   41100      0    1.65e+00    0    1.16e+00
2006 11 29  1130    54068   41400      0    1.65e+00    0    1.17e+00
2006 11 29  1135    54068   41700      0    1.67e+00    0    1.17e+00
2006 11 29  1140    54068   42000      0    1.64e+00    0    1.14e+00
2006 11 29  1145    54068   42300      0    1.65e+00    0    1.15e+00
2006 11 29  1150    54068   42600      0    1.67e+00    0    1.16e+00
2006 11 29  1155    54068   42900      0    1.65e+00    0    1.14e+00
2006 11 29  1200    54068   43200      0    1.63e+00    0    1.15e+00
2006 11 29  1205    54068   43500      0    1.64e+00    0    1.14e+00
2006 11 29  1210    54068   43800      0    1.66e+00    0    1.16e+00
2006 11 29  1215    54068   44100      0    1.62e+00    0    1.14e+00
2006 11 29  1220    54068   44400      0    1.64e+00    0    1.15e+00
2006 11 29  1225    54068   44700      0    1.69e+00    0    1.19e+00
2006 11 29  1230    54068   45000      0    1.66e+00    0    1.16e+00
2006 11 29  1235    54068   45300      0    1.66e+00    0    1.17e+00
2006 11 29  1240    54068   45600      0    1.62e+00    0    1.14e+00
2006 11 29  1245    54068   45900      0    1.66e+00    0    1.17e+00
2006 11 29  1250    54068   46200      0    1.65e+00    0    1.15e+00
2006 11 29  1255    54068   46500      0    1.67e+00    0    1.18e+00
2006 11 29  1300    54068   46800      0    1.67e+00    0    1.17e+00
2006 11 29  1305    54068   47100      0    1.65e+00    0    1.16e+00
2006 11 29  1310    54068   47400      0    1.64e+00    0    1.13e+00
2006 11 29  1315    54068   47700      0    1.65e+00    0    1.16e+00
2006 11 29  1320    54068   48000      0    1.63e+00    0    1.15e+00
2006 11 29  1325    54068   48300      0    1.66e+00    0    1.16e+00
2006 11 29  1330    54068   48600      0    1.65e+00    0    1.15e+00
2006 11 29  1335    54068   48900      0    1.66e+00    0    1.17e+00
2006 11 29  1340    54068   49200      0    1.65e+00    0    1.15e+00
2006 11 29  1345    54068   49500      0    1.68e+00    0    1.17e+00
2006 11 29  1350    54068   49800      0    1.69e+00    0    1.18e+00
2006 11 29  1355    54068   50100      0    1.70e+00    0    1.19e+00
2006 11 29  1400    54068   50400      0    1.64e+00    0    1.15e+00
2006 11 29  1405    54068   50700      0    3.51e+00    0    2.72e+00
2006 11 29  1410    54068   51000      0    1.68e+00    0    1.18e+00
2006 11 29  1415    54068   51300      0    1.69e+00    0    1.18e+00
2006 11 29  1420    54068   51600      0    1.69e+00    0    1.17e+00
2006 11 29  1425    54068   51900      0    1.68e+00    0    1.19e+00
2006 11 29  1430    54068   52200      0    1.70e+00    0    1.20e+00
2006 11 29  1435    54068   52500      0    1.65e+00    0    1.15e+00
2006 11 29  1440    54068   52800      0    1.67e+00    0    1.17e+00
2006 11 29  1445    54068   53100      0    1.70e+00    0    1.20e+00
2006 11 29  1450    54068   53400      0    1.67e+00    0    1.17e+00
2006 11 29  1455    54068   53700      0    1.67e+00    0    1.17e+00
2006 11 29  1500    54068   54000      0    1.69e+00    0    1.20e+00
2006 11 29  1505    54068   54300      0    1.71e+00    0    1.19e+00
2006 11 29  1510    54068   54600      0    1.70e+00    0    1.20e+00
2006 11 29  1515    54068   54900      0    1.67e+00    0    1.17e+00
2006 11 29  1520    54068   55200      0    1.66e+00    0    1.16e+00
2006 11 29  1525    54068   55500      0    1.64e+00    0    1.15e+00
2006 11 29  1530    54068   55800      0    1.70e+00    0    1.20e+00
2006 11 29  1535    54068   56100      0    1.66e+00    0    1.15e+00
2006 11 29  1540    54068   56400      0    1.70e+00    0    1.20e+00
2006 11 29  1545    54068   56700      0    1.68e+00    0    1.18e+00
2006 11 29  1550    54068   57000      0    1.69e+00    0    1.19e+00
2006 11 29  1555    54068   57300      0    1.70e+00    0    1.20e+00
2006 11 29  1600    54068   57600      0    1.67e+00    0    1.17e+00
2006 11 29  1605    54068   57900      0    1.70e+00    0    1.18e+00
2006 11 29  1610    54068   58200      0    1.71e+00    0    1.20e+00
2006 11 29  1615    54068   58500      0    1.64e+00    0    1.15e+00
2006 11 29  1620    54068   58800      0    1.68e+00    0    1.17e+00
2006 11 29  1625    54068   59100      0    1.68e+00    0    1.17e+00
2006 11 29  1630    54068   59400      0    1.69e+00    0    1.19e+00
2006 11 29  1635    54068   59700      0    1.68e+00    0    1.17e+00
2006 11 29  1640    54068   60000      0    1.67e+00    0    1.19e+00
2006 11 29  1645    54068   60300      0    1.69e+00    0    1.18e+00
2006 11 29  1650    54068   60600      0    1.71e+00    0    1.20e+00
2006 11 29  1655    54068   60900      0    1.73e+00    0    1.22e+00
2006 11 29  1700    54068   61200      0    1.70e+00    0    1.20e+00
2006 11 29  1705    54068   61500      0    1.69e+00    0    1.20e+00
2006 11 29  1710    54068   61800      0    1.65e+00    0    1.15e+00
2006 11 29  1715    54068   62100      0    1.68e+00    0    1.17e+00
2006 11 29  1720    54068   62400      0    1.72e+00    0    1.21e+00
2006 11 29  1725    54068   62700      0    1.73e+00    0    1.23e+00
2006 11 29  1730    54068   63000      0    1.68e+00    0    1.18e+00
2006 11 29  1735    54068   63300      0    1.67e+00    0    1.17e+00
2006 11 29  1740    54068   63600      0    1.67e+00    0    1.17e+00
2006 11 29  1745    54068   63900      0    1.68e+00    0    1.18e+00
2006 11 29  1750    54068   64200      0    1.67e+00    0    1.17e+00
2006 11 29  1755    54068   64500      0    1.68e+00    0    1.16e+00
2006 11 29  1800    54068   64800      0    1.68e+00    0    1.17e+00
2006 11 29  1805    54068   65100      0    1.69e+00    0    1.19e+00
2006 11 29  1810    54068   65400      0    1.71e+00    0    1.20e+00
2006 11 29  1815    54068   65700      0    1.64e+00    0    1.15e+00
2006 11 29  1820    54068   66000      0    1.67e+00    0    1.15e+00
2006 11 29  1825    54068   66300      0    1.70e+00    0    1.17e+00
2006 11 29  1830    54068   66600      0    1.69e+00    0    1.19e+00
2006 11 29  1835    54068   66900      0    1.66e+00    0    1.16e+00
2006 11 29  1840    54068   67200      0    1.69e+00    0    1.19e+00
2006 11 29  1845    54068   67500      0    1.69e+00    0    1.20e+00
2006 11 29  1850    54068   67800      0    1.64e+00    0    1.15e+00
2006 11 29  1855    54068   68100      0    1.70e+00    0    1.19e+00
2006 11 29  1900    54068   68400      0    1.64e+00    0    1.14e+00
2006 11 29  1905    54068   68700      0    1.70e+00    0    1.20e+00
2006 11 29  1910    54068   69000      0    1.68e+00    0    1.16e+00
2006 11 29  1915    54068   69300      0    1.69e+00    0    1.18e+00
2006 11 29  1920    54068   69600      0    1.67e+00    0    1.17e+00
2006 11 29  1925    54068   69900      0    1.65e+00    0    1.16e+00
2006 11 29  1930    54068   70200      0    1.66e+00    0    1.16e+00
2006 11 29  1935    54068   70500      0    1.67e+00    0    1.19e+00
2006 11 29  1940    54068   70800      0    1.67e+00    0    1.17e+00
2006 11 29  1945    54068   71100      0    1.71e+00    0    1.20e+00
2006 11 29  1950    54068   71400      0    1.69e+00    0    1.18e+00
2006 11 29  1955    54068   71700      0    1.71e+00    0    1.21e+00
2006 11 29  2000    54068   72000      0    1.72e+00    0    1.22e+00
2006 11 29  2005    54068   72300      0    1.69e+00    0    1.19e+00
2006 11 29  2010    54068   72600      0    1.68e+00    0    1.17e+00
2006 11 29  2015    54068   72900      0    1.73e+00    0    1.22e+00
2006 11 29  2020    54068   73200      0    1.65e+00    0    1.14e+00
2006 11 29  2025    54068   73500      0    1.73e+00    0    1.22e+00
2006 11 29  2030    54068   73800      0    1.68e+00    0    1.19e+00
2006 11 29  2035    54068   74100      0    1.69e+00    0    1.18e+00
2006 11 29  2040    54068   74400      0    1.68e+00    0    1.17e+00
2006 11 29  2045    54068   74700      9   -1.00e+05    9   -1.00e+05
2006 11 29  2050    54068   75000      9   -1.00e+05    9   -1.00e+05
2006 11 29  2055    54068   75300      9   -1.00e+05    9   -1.00e+05
2006 11 29  2100    54068   75600      9   -1.00e+05    9   -1.00e+05
2006 11 29  2105    54068   75900      0    1.68e+00    0    1.18e+00
2006 11 29  2110    54068   76200      0    1.70e+00    0    1.19e+00
2006 11 29  2115    54068   76500      0    1.77e+00    0    1.25e+00
2006 11 29  2120    54068   76800      0    1.65e+00    0    1.17e+00
2006 11 29  2125    54068   77100      9   -1.00e+05    9   -1.00e+05
2006 11 29  2130    54068   77400      0    1.71e+00    0    1.17e+00
2006 11 29  2135    54068   77700      0    1.70e+00    0    1.19e+00
2006 11 29  2140    54068   78000      9   -1.00e+05    9   -1.00e+05
2006 11 29  2145    54068   78300      0    1.65e+00    0    1.14e+00
2006 11 29  2150    54068   78600      0    1.66e+00    0    1.17e+00
2006 11 29  2155    54068   78900      0    1.69e+00    0    1.19e+00
2006 11 29  2200    54068   79200      0    1.67e+00    0    1.17e+00
2006 11 29  2205    54068   79500      0    1.65e+00    0    1.16e+00
2006 11 29  2210    54068   79800      0    1.62e+00    0    1.15e+00
2006 11 29  2215    54068   80100      0    1.65e+00    0    1.16e+00
2006 11 29  2220    54068   80400      0    1.65e+00    0    1.15e+00
2006 11 29  2225    54068   80700      0    1.70e+00    0    1.18e+00
2006 11 29  2230    54068   81000      0    1.69e+00    0    1.18e+00
2006 11 29  2235    54068   81300      0    1.70e+00    0    1.19e+00
2006 11 29  2240    54068   81600      0    1.67e+00    0    1.16e+00
2006 11 29  2245    54068   81900      0    1.65e+00    0    1.16e+00
2006 11 29  2250    54068   82200      0    1.70e+00    0    1.20e+00
2006 11 29  2255    54068   82500      0    1.65e+00    0    1.15e+00
2006 11 29  2300    54068   82800      0    1.71e+00    0    1.20e+00
2006 11 29  2305    54068   83100      0    1.69e+00    0    1.18e+00
2006 11 29  2310    54068   83400      0    1.66e+00    0    1.16e+00
2006 11 29  2315    54068   83700      0    1.71e+00    0    1.20e+00
2006 11 29  2320    54068   84000      0    1.65e+00    0    1.15e+00
2006 11 29  2325    54068   84300      0    1.69e+00    0    1.19e+00
2006 11 29  2330    54068   84600      0    1.72e+00    0    1.21e+00
2006 11 29  2335    54068   84900      0    1.68e+00    0    1.18e+00
2006 11 29  2340    54068   85200      0    1.66e+00    0    1.16e+00
2006 11 29  2345    54068   85500      0    1.67e+00    0    1.18e+00
2006 11 29  2350    54068   85800      0    1.70e+00    0    1.18e+00
2006 11 29  2355    54068   86100      0    1.67e+00    0    1.17e+00
