:Data_list: 20061109_ace_sis_5m.txt
:Created: 2006 Nov 10 0011 UT
# Prepared by the U.S. Dept. of Commerce, NOAA, Space Environment Center.
# Please send comments and suggestions to SEC.Webmaster@noaa.gov 
# 
# Units: proton flux p/cs2-sec-ster
# Status(S): 0 = nominal data, 1 to 8 = bad data record, 9 = no data
# Missing data values: -1.00e+05
# Source: ACE Satellite - Solar Isotope Spectrometer
#
# 5-minute averaged Real-time Integral Flux of High-energy Solar Protons
# 
#                 Modified Seconds
# UT Date   Time   Julian  of the      ---- Integral Proton Flux ----
# YR MO DA  HHMM     Day     Day       S    > 10 MeV    S    > 30 MeV
#--------------------------------------------------------------------
2006 11 09  0000    54048       0      0    1.77e+00    0    1.22e+00
2006 11 09  0005    54048     300      0    1.76e+00    0    1.20e+00
2006 11 09  0010    54048     600      0    1.75e+00    0    1.21e+00
2006 11 09  0015    54048     900      0    1.76e+00    0    1.22e+00
2006 11 09  0020    54048    1200      0    1.78e+00    0    1.24e+00
2006 11 09  0025    54048    1500      0    1.77e+00    0    1.22e+00
2006 11 09  0030    54048    1800      0    1.73e+00    0    1.21e+00
2006 11 09  0035    54048    2100      0    1.77e+00    0    1.22e+00
2006 11 09  0040    54048    2400      0    1.77e+00    0    1.23e+00
2006 11 09  0045    54048    2700      0    1.72e+00    0    1.19e+00
2006 11 09  0050    54048    3000      0    1.81e+00    0    1.25e+00
2006 11 09  0055    54048    3300      0    1.75e+00    0    1.22e+00
2006 11 09  0100    54048    3600      0    1.76e+00    0    1.22e+00
2006 11 09  0105    54048    3900      0    1.78e+00    0    1.23e+00
2006 11 09  0110    54048    4200      0    1.76e+00    0    1.22e+00
2006 11 09  0115    54048    4500      0    1.80e+00    0    1.25e+00
2006 11 09  0120    54048    4800      0    1.77e+00    0    1.22e+00
2006 11 09  0125    54048    5100      0    1.76e+00    0    1.22e+00
2006 11 09  0130    54048    5400      0    1.76e+00    0    1.21e+00
2006 11 09  0135    54048    5700      0    1.76e+00    0    1.23e+00
2006 11 09  0140    54048    6000      0    1.76e+00    0    1.23e+00
2006 11 09  0145    54048    6300      0    1.78e+00    0    1.25e+00
2006 11 09  0150    54048    6600      0    1.76e+00    0    1.21e+00
2006 11 09  0155    54048    6900      0    1.75e+00    0    1.21e+00
2006 11 09  0200    54048    7200      0    1.76e+00    0    1.23e+00
2006 11 09  0205    54048    7500      0    1.75e+00    0    1.21e+00
2006 11 09  0210    54048    7800      0    1.79e+00    0    1.24e+00
2006 11 09  0215    54048    8100      0    1.77e+00    0    1.23e+00
2006 11 09  0220    54048    8400      0    1.76e+00    0    1.22e+00
2006 11 09  0225    54048    8700      0    1.72e+00    0    1.19e+00
2006 11 09  0230    54048    9000      0    1.76e+00    0    1.22e+00
2006 11 09  0235    54048    9300      0    1.80e+00    0    1.25e+00
2006 11 09  0240    54048    9600      0    1.81e+00    0    1.26e+00
2006 11 09  0245    54048    9900      0    1.77e+00    0    1.24e+00
2006 11 09  0250    54048   10200      0    1.71e+00    0    1.19e+00
2006 11 09  0255    54048   10500      0    1.75e+00    0    1.22e+00
2006 11 09  0300    54048   10800      0    1.74e+00    0    1.22e+00
2006 11 09  0305    54048   11100      0    1.72e+00    0    1.20e+00
2006 11 09  0310    54048   11400      0    1.76e+00    0    1.22e+00
2006 11 09  0315    54048   11700      0    1.75e+00    0    1.22e+00
2006 11 09  0320    54048   12000      0    1.75e+00    0    1.21e+00
2006 11 09  0325    54048   12300      0    1.80e+00    0    1.24e+00
2006 11 09  0330    54048   12600      0    1.74e+00    0    1.20e+00
2006 11 09  0335    54048   12900      0    1.78e+00    0    1.23e+00
2006 11 09  0340    54048   13200      0    1.79e+00    0    1.25e+00
2006 11 09  0345    54048   13500      0    1.76e+00    0    1.23e+00
2006 11 09  0350    54048   13800      0    1.78e+00    0    1.22e+00
2006 11 09  0355    54048   14100      0    1.76e+00    0    1.23e+00
2006 11 09  0400    54048   14400      0    1.77e+00    0    1.23e+00
2006 11 09  0405    54048   14700      0    1.77e+00    0    1.24e+00
2006 11 09  0410    54048   15000      0    1.75e+00    0    1.21e+00
2006 11 09  0415    54048   15300      0    1.77e+00    0    1.21e+00
2006 11 09  0420    54048   15600      0    1.81e+00    0    1.27e+00
2006 11 09  0425    54048   15900      0    1.72e+00    0    1.20e+00
2006 11 09  0430    54048   16200      0    1.76e+00    0    1.23e+00
2006 11 09  0435    54048   16500      0    1.79e+00    0    1.23e+00
2006 11 09  0440    54048   16800      0    1.77e+00    0    1.22e+00
2006 11 09  0445    54048   17100      0    1.77e+00    0    1.23e+00
2006 11 09  0450    54048   17400      0    1.78e+00    0    1.23e+00
2006 11 09  0455    54048   17700      0    1.73e+00    0    1.20e+00
2006 11 09  0500    54048   18000      0    1.77e+00    0    1.24e+00
2006 11 09  0505    54048   18300      0    1.74e+00    0    1.21e+00
2006 11 09  0510    54048   18600      0    1.80e+00    0    1.25e+00
2006 11 09  0515    54048   18900      0    1.75e+00    0    1.22e+00
2006 11 09  0520    54048   19200      0    1.77e+00    0    1.24e+00
2006 11 09  0525    54048   19500      0    1.73e+00    0    1.19e+00
2006 11 09  0530    54048   19800      0    1.78e+00    0    1.23e+00
2006 11 09  0535    54048   20100      0    1.81e+00    0    1.26e+00
2006 11 09  0540    54048   20400      0    1.79e+00    0    1.25e+00
2006 11 09  0545    54048   20700      0    1.79e+00    0    1.26e+00
2006 11 09  0550    54048   21000      0    1.78e+00    0    1.24e+00
2006 11 09  0555    54048   21300      0    1.81e+00    0    1.26e+00
2006 11 09  0600    54048   21600      0    1.79e+00    0    1.24e+00
2006 11 09  0605    54048   21900      0    1.81e+00    0    1.25e+00
2006 11 09  0610    54048   22200      0    1.75e+00    0    1.22e+00
2006 11 09  0615    54048   22500      0    1.81e+00    0    1.27e+00
2006 11 09  0620    54048   22800      0    1.78e+00    0    1.23e+00
2006 11 09  0625    54048   23100      0    1.75e+00    0    1.21e+00
2006 11 09  0630    54048   23400      0    1.77e+00    0    1.23e+00
2006 11 09  0635    54048   23700      0    1.78e+00    0    1.25e+00
2006 11 09  0640    54048   24000      0    1.76e+00    0    1.21e+00
2006 11 09  0645    54048   24300      0    1.74e+00    0    1.20e+00
2006 11 09  0650    54048   24600      0    1.80e+00    0    1.25e+00
2006 11 09  0655    54048   24900      0    1.76e+00    0    1.23e+00
2006 11 09  0700    54048   25200      0    1.80e+00    0    1.25e+00
2006 11 09  0705    54048   25500      0    1.77e+00    0    1.22e+00
2006 11 09  0710    54048   25800      0    1.81e+00    0    1.24e+00
2006 11 09  0715    54048   26100      0    1.81e+00    0    1.26e+00
2006 11 09  0720    54048   26400      0    1.83e+00    0    1.28e+00
2006 11 09  0725    54048   26700      0    1.80e+00    0    1.24e+00
2006 11 09  0730    54048   27000      0    1.79e+00    0    1.25e+00
2006 11 09  0735    54048   27300      0    1.78e+00    0    1.24e+00
2006 11 09  0740    54048   27600      0    1.77e+00    0    1.23e+00
2006 11 09  0745    54048   27900      0    1.84e+00    0    1.28e+00
2006 11 09  0750    54048   28200      0    1.81e+00    0    1.25e+00
2006 11 09  0755    54048   28500      0    1.80e+00    0    1.25e+00
2006 11 09  0800    54048   28800      0    1.78e+00    0    1.22e+00
2006 11 09  0805    54048   29100      0    1.78e+00    0    1.24e+00
2006 11 09  0810    54048   29400      0    1.77e+00    0    1.23e+00
2006 11 09  0815    54048   29700      0    1.77e+00    0    1.24e+00
2006 11 09  0820    54048   30000      0    1.79e+00    0    1.26e+00
2006 11 09  0825    54048   30300      0    1.79e+00    0    1.24e+00
2006 11 09  0830    54048   30600      0    1.79e+00    0    1.24e+00
2006 11 09  0835    54048   30900      0    1.75e+00    0    1.21e+00
2006 11 09  0840    54048   31200      0    1.77e+00    0    1.23e+00
2006 11 09  0845    54048   31500      0    1.78e+00    0    1.23e+00
2006 11 09  0850    54048   31800      0    1.77e+00    0    1.24e+00
2006 11 09  0855    54048   32100      0    1.77e+00    0    1.23e+00
2006 11 09  0900    54048   32400      0    1.79e+00    0    1.24e+00
2006 11 09  0905    54048   32700      0    1.78e+00    0    1.22e+00
2006 11 09  0910    54048   33000      0    1.75e+00    0    1.21e+00
2006 11 09  0915    54048   33300      0    1.79e+00    0    1.23e+00
2006 11 09  0920    54048   33600      0    1.74e+00    0    1.20e+00
2006 11 09  0925    54048   33900      0    1.78e+00    0    1.25e+00
2006 11 09  0930    54048   34200      0    1.73e+00    0    1.21e+00
2006 11 09  0935    54048   34500      0    1.79e+00    0    1.24e+00
2006 11 09  0940    54048   34800      0    1.79e+00    0    1.25e+00
2006 11 09  0945    54048   35100      0    1.78e+00    0    1.24e+00
2006 11 09  0950    54048   35400      0    1.79e+00    0    1.24e+00
2006 11 09  0955    54048   35700      0    1.80e+00    0    1.26e+00
2006 11 09  1000    54048   36000      0    1.75e+00    0    1.23e+00
2006 11 09  1005    54048   36300      0    1.76e+00    0    1.23e+00
2006 11 09  1010    54048   36600      0    1.76e+00    0    1.22e+00
2006 11 09  1015    54048   36900      0    1.79e+00    0    1.24e+00
2006 11 09  1020    54048   37200      0    1.79e+00    0    1.24e+00
2006 11 09  1025    54048   37500      0    1.77e+00    0    1.23e+00
2006 11 09  1030    54048   37800      0    1.77e+00    0    1.24e+00
2006 11 09  1035    54048   38100      0    1.76e+00    0    1.23e+00
2006 11 09  1040    54048   38400      0    1.77e+00    0    1.24e+00
2006 11 09  1045    54048   38700      0    1.77e+00    0    1.23e+00
2006 11 09  1050    54048   39000      0    1.79e+00    0    1.26e+00
2006 11 09  1055    54048   39300      0    1.78e+00    0    1.25e+00
2006 11 09  1100    54048   39600      0    1.78e+00    0    1.24e+00
2006 11 09  1105    54048   39900      0    1.80e+00    0    1.25e+00
2006 11 09  1110    54048   40200      0    1.82e+00    0    1.27e+00
2006 11 09  1115    54048   40500      0    1.78e+00    0    1.25e+00
2006 11 09  1120    54048   40800      0    1.77e+00    0    1.24e+00
2006 11 09  1125    54048   41100      0    1.81e+00    0    1.26e+00
2006 11 09  1130    54048   41400      0    1.72e+00    0    1.20e+00
2006 11 09  1135    54048   41700      0    1.77e+00    0    1.23e+00
2006 11 09  1140    54048   42000      0    1.77e+00    0    1.23e+00
2006 11 09  1145    54048   42300      0    1.75e+00    0    1.22e+00
2006 11 09  1150    54048   42600      0    1.73e+00    0    1.21e+00
2006 11 09  1155    54048   42900      0    1.81e+00    0    1.26e+00
2006 11 09  1200    54048   43200      0    1.76e+00    0    1.23e+00
2006 11 09  1205    54048   43500      0    1.77e+00    0    1.23e+00
2006 11 09  1210    54048   43800      0    1.74e+00    0    1.22e+00
2006 11 09  1215    54048   44100      0    1.79e+00    0    1.24e+00
2006 11 09  1220    54048   44400      0    1.76e+00    0    1.22e+00
2006 11 09  1225    54048   44700      0    1.76e+00    0    1.22e+00
2006 11 09  1230    54048   45000      0    1.81e+00    0    1.25e+00
2006 11 09  1235    54048   45300      0    1.75e+00    0    1.22e+00
2006 11 09  1240    54048   45600      0    1.79e+00    0    1.23e+00
2006 11 09  1245    54048   45900      0    1.78e+00    0    1.24e+00
2006 11 09  1250    54048   46200      0    1.83e+00    0    1.27e+00
2006 11 09  1255    54048   46500      0    1.74e+00    0    1.21e+00
2006 11 09  1300    54048   46800      0    1.79e+00    0    1.25e+00
2006 11 09  1305    54048   47100      0    1.76e+00    0    1.21e+00
2006 11 09  1310    54048   47400      0    1.76e+00    0    1.21e+00
2006 11 09  1315    54048   47700      0    1.78e+00    0    1.23e+00
2006 11 09  1320    54048   48000      0    1.80e+00    0    1.26e+00
2006 11 09  1325    54048   48300      0    1.78e+00    0    1.24e+00
2006 11 09  1330    54048   48600      0    1.74e+00    0    1.20e+00
2006 11 09  1335    54048   48900      0    1.77e+00    0    1.23e+00
2006 11 09  1340    54048   49200      0    1.78e+00    0    1.24e+00
2006 11 09  1345    54048   49500      0    1.78e+00    0    1.24e+00
2006 11 09  1350    54048   49800      0    1.75e+00    0    1.24e+00
2006 11 09  1355    54048   50100      0    1.75e+00    0    1.22e+00
2006 11 09  1400    54048   50400      0    1.74e+00    0    1.21e+00
2006 11 09  1405    54048   50700      0    1.79e+00    0    1.24e+00
2006 11 09  1410    54048   51000      0    1.75e+00    0    1.21e+00
2006 11 09  1415    54048   51300      0    1.80e+00    0    1.24e+00
2006 11 09  1420    54048   51600      0    1.80e+00    0    1.26e+00
2006 11 09  1425    54048   51900      0    1.77e+00    0    1.24e+00
2006 11 09  1430    54048   52200      0    1.74e+00    0    1.21e+00
2006 11 09  1435    54048   52500      0    1.75e+00    0    1.21e+00
2006 11 09  1440    54048   52800      0    1.75e+00    0    1.22e+00
2006 11 09  1445    54048   53100      0    1.77e+00    0    1.22e+00
2006 11 09  1450    54048   53400      0    1.78e+00    0    1.25e+00
2006 11 09  1455    54048   53700      0    1.75e+00    0    1.23e+00
2006 11 09  1500    54048   54000      0    1.77e+00    0    1.23e+00
2006 11 09  1505    54048   54300      0    1.76e+00    0    1.22e+00
2006 11 09  1510    54048   54600      0    1.77e+00    0    1.23e+00
2006 11 09  1515    54048   54900      0    1.78e+00    0    1.22e+00
2006 11 09  1520    54048   55200      0    1.80e+00    0    1.24e+00
2006 11 09  1525    54048   55500      0    1.80e+00    0    1.24e+00
2006 11 09  1530    54048   55800      0    1.78e+00    0    1.24e+00
2006 11 09  1535    54048   56100      0    1.80e+00    0    1.23e+00
2006 11 09  1540    54048   56400      0    1.77e+00    0    1.23e+00
2006 11 09  1545    54048   56700      0    1.77e+00    0    1.24e+00
2006 11 09  1550    54048   57000      0    1.79e+00    0    1.24e+00
2006 11 09  1555    54048   57300      0    1.80e+00    0    1.25e+00
2006 11 09  1600    54048   57600      0    1.83e+00    0    1.27e+00
2006 11 09  1605    54048   57900      0    1.77e+00    0    1.23e+00
2006 11 09  1610    54048   58200      0    1.77e+00    0    1.23e+00
2006 11 09  1615    54048   58500      0    1.77e+00    0    1.23e+00
2006 11 09  1620    54048   58800      0    1.79e+00    0    1.23e+00
2006 11 09  1625    54048   59100      0    1.86e+00    0    1.28e+00
2006 11 09  1630    54048   59400      0    1.74e+00    0    1.19e+00
2006 11 09  1635    54048   59700      0    1.78e+00    0    1.24e+00
2006 11 09  1640    54048   60000      0    1.80e+00    0    1.25e+00
2006 11 09  1645    54048   60300      0    1.80e+00    0    1.25e+00
2006 11 09  1650    54048   60600      0    1.79e+00    0    1.23e+00
2006 11 09  1655    54048   60900      0    1.80e+00    0    1.25e+00
2006 11 09  1700    54048   61200      0    1.76e+00    0    1.23e+00
2006 11 09  1705    54048   61500      0    1.82e+00    0    1.25e+00
2006 11 09  1710    54048   61800      0    1.79e+00    0    1.23e+00
2006 11 09  1715    54048   62100      0    1.82e+00    0    1.26e+00
2006 11 09  1720    54048   62400      0    1.76e+00    0    1.22e+00
2006 11 09  1725    54048   62700      0    1.78e+00    0    1.22e+00
2006 11 09  1730    54048   63000      0    1.72e+00    0    1.19e+00
2006 11 09  1735    54048   63300      0    1.76e+00    0    1.22e+00
2006 11 09  1740    54048   63600      0    1.78e+00    0    1.24e+00
2006 11 09  1745    54048   63900      0    1.77e+00    0    1.23e+00
2006 11 09  1750    54048   64200      0    1.77e+00    0    1.22e+00
2006 11 09  1755    54048   64500      0    1.80e+00    0    1.24e+00
2006 11 09  1800    54048   64800      0    1.73e+00    0    1.19e+00
2006 11 09  1805    54048   65100      0    1.79e+00    0    1.24e+00
2006 11 09  1810    54048   65400      0    1.74e+00    0    1.20e+00
2006 11 09  1815    54048   65700      0    1.74e+00    0    1.21e+00
2006 11 09  1820    54048   66000      0    1.72e+00    0    1.19e+00
2006 11 09  1825    54048   66300      0    1.72e+00    0    1.19e+00
2006 11 09  1830    54048   66600      0    1.74e+00    0    1.20e+00
2006 11 09  1835    54048   66900      0    1.76e+00    0    1.22e+00
2006 11 09  1840    54048   67200      0    1.74e+00    0    1.21e+00
2006 11 09  1845    54048   67500      0    1.75e+00    0    1.21e+00
2006 11 09  1850    54048   67800      0    1.73e+00    0    1.21e+00
2006 11 09  1855    54048   68100      0    1.74e+00    0    1.20e+00
2006 11 09  1900    54048   68400      0    1.78e+00    0    1.23e+00
2006 11 09  1905    54048   68700      0    1.74e+00    0    1.21e+00
2006 11 09  1910    54048   69000      0    1.71e+00    0    1.19e+00
2006 11 09  1915    54048   69300      0    1.75e+00    0    1.21e+00
2006 11 09  1920    54048   69600      0    1.76e+00    0    1.20e+00
2006 11 09  1925    54048   69900      0    1.77e+00    0    1.22e+00
2006 11 09  1930    54048   70200      0    1.72e+00    0    1.20e+00
2006 11 09  1935    54048   70500      0    1.69e+00    0    1.15e+00
2006 11 09  1940    54048   70800      0    1.75e+00    0    1.20e+00
2006 11 09  1945    54048   71100      0    1.75e+00    0    1.21e+00
2006 11 09  1950    54048   71400      0    1.78e+00    0    1.24e+00
2006 11 09  1955    54048   71700      0    1.72e+00    0    1.20e+00
2006 11 09  2000    54048   72000      0    1.71e+00    0    1.18e+00
2006 11 09  2005    54048   72300      0    1.69e+00    0    1.16e+00
2006 11 09  2010    54048   72600      0    1.75e+00    0    1.22e+00
2006 11 09  2015    54048   72900      0    1.74e+00    0    1.20e+00
2006 11 09  2020    54048   73200      0    1.71e+00    0    1.19e+00
2006 11 09  2025    54048   73500      0    1.72e+00    0    1.19e+00
2006 11 09  2030    54048   73800      0    1.75e+00    0    1.19e+00
2006 11 09  2035    54048   74100      0    1.74e+00    0    1.20e+00
2006 11 09  2040    54048   74400      0    1.73e+00    0    1.20e+00
2006 11 09  2045    54048   74700      0    1.68e+00    0    1.16e+00
2006 11 09  2050    54048   75000      0    1.73e+00    0    1.21e+00
2006 11 09  2055    54048   75300      0    1.75e+00    0    1.21e+00
2006 11 09  2100    54048   75600      9   -1.00e+05    9   -1.00e+05
2006 11 09  2105    54048   75900      9   -1.00e+05    9   -1.00e+05
2006 11 09  2110    54048   76200      9   -1.00e+05    9   -1.00e+05
2006 11 09  2115    54048   76500      0    1.69e+00    0    1.17e+00
2006 11 09  2120    54048   76800      0    1.71e+00    0    1.18e+00
2006 11 09  2125    54048   77100      0    1.76e+00    0    1.22e+00
2006 11 09  2130    54048   77400      0    1.75e+00    0    1.22e+00
2006 11 09  2135    54048   77700      0    1.75e+00    0    1.21e+00
2006 11 09  2140    54048   78000      0    1.72e+00    0    1.19e+00
2006 11 09  2145    54048   78300      0    1.71e+00    0    1.16e+00
2006 11 09  2150    54048   78600      0    1.73e+00    0    1.19e+00
2006 11 09  2155    54048   78900      0    1.72e+00    0    1.20e+00
2006 11 09  2200    54048   79200      0    1.77e+00    0    1.22e+00
2006 11 09  2205    54048   79500      0    1.69e+00    0    1.17e+00
2006 11 09  2210    54048   79800      0    1.69e+00    0    1.15e+00
2006 11 09  2215    54048   80100      0    1.74e+00    0    1.21e+00
2006 11 09  2220    54048   80400      0    1.77e+00    0    1.24e+00
2006 11 09  2225    54048   80700      0    1.74e+00    0    1.20e+00
2006 11 09  2230    54048   81000      0    1.71e+00    0    1.18e+00
2006 11 09  2235    54048   81300      0    1.73e+00    0    1.19e+00
2006 11 09  2240    54048   81600      0    1.72e+00    0    1.20e+00
2006 11 09  2245    54048   81900      0    1.74e+00    0    1.21e+00
2006 11 09  2250    54048   82200      0    1.80e+00    0    1.25e+00
2006 11 09  2255    54048   82500      0    1.71e+00    0    1.18e+00
2006 11 09  2300    54048   82800      0    1.69e+00    0    1.17e+00
2006 11 09  2305    54048   83100      0    1.69e+00    0    1.15e+00
2006 11 09  2310    54048   83400      0    1.74e+00    0    1.21e+00
2006 11 09  2315    54048   83700      0    1.73e+00    0    1.21e+00
2006 11 09  2320    54048   84000      0    1.71e+00    0    1.18e+00
2006 11 09  2325    54048   84300      0    1.68e+00    0    1.14e+00
2006 11 09  2330    54048   84600      0    1.74e+00    0    1.19e+00
2006 11 09  2335    54048   84900      0    1.70e+00    0    1.18e+00
2006 11 09  2340    54048   85200      0    1.73e+00    0    1.19e+00
2006 11 09  2345    54048   85500      0    1.68e+00    0    1.15e+00
2006 11 09  2350    54048   85800      0    1.71e+00    0    1.18e+00
2006 11 09  2355    54048   86100      0    1.73e+00    0    1.20e+00
