:Data_list: 20061102_ace_sis_5m.txt
:Created: 2006 Nov 03 0011 UT
# Prepared by the U.S. Dept. of Commerce, NOAA, Space Environment Center.
# Please send comments and suggestions to SEC.Webmaster@noaa.gov 
# 
# Units: proton flux p/cs2-sec-ster
# Status(S): 0 = nominal data, 1 to 8 = bad data record, 9 = no data
# Missing data values: -1.00e+05
# Source: ACE Satellite - Solar Isotope Spectrometer
#
# 5-minute averaged Real-time Integral Flux of High-energy Solar Protons
# 
#                 Modified Seconds
# UT Date   Time   Julian  of the      ---- Integral Proton Flux ----
# YR MO DA  HHMM     Day     Day       S    > 10 MeV    S    > 30 MeV
#--------------------------------------------------------------------
2006 11 02  0000    54041       0      0    1.73e+00    0    1.21e+00
2006 11 02  0005    54041     300      0    1.71e+00    0    1.21e+00
2006 11 02  0010    54041     600      0    1.70e+00    0    1.20e+00
2006 11 02  0015    54041     900      0    1.70e+00    0    1.19e+00
2006 11 02  0020    54041    1200      0    1.70e+00    0    1.20e+00
2006 11 02  0025    54041    1500      0    1.72e+00    0    1.20e+00
2006 11 02  0030    54041    1800      0    1.72e+00    0    1.21e+00
2006 11 02  0035    54041    2100      0    1.72e+00    0    1.20e+00
2006 11 02  0040    54041    2400      0    1.68e+00    0    1.18e+00
2006 11 02  0045    54041    2700      0    1.72e+00    0    1.20e+00
2006 11 02  0050    54041    3000      0    1.71e+00    0    1.20e+00
2006 11 02  0055    54041    3300      0    1.72e+00    0    1.20e+00
2006 11 02  0100    54041    3600      0    1.71e+00    0    1.21e+00
2006 11 02  0105    54041    3900      0    1.73e+00    0    1.20e+00
2006 11 02  0110    54041    4200      0    1.75e+00    0    1.21e+00
2006 11 02  0115    54041    4500      0    1.70e+00    0    1.18e+00
2006 11 02  0120    54041    4800      0    1.73e+00    0    1.23e+00
2006 11 02  0125    54041    5100      0    1.74e+00    0    1.22e+00
2006 11 02  0130    54041    5400      0    1.73e+00    0    1.22e+00
2006 11 02  0135    54041    5700      0    1.69e+00    0    1.18e+00
2006 11 02  0140    54041    6000      0    1.71e+00    0    1.21e+00
2006 11 02  0145    54041    6300      0    1.71e+00    0    1.20e+00
2006 11 02  0150    54041    6600      0    1.72e+00    0    1.22e+00
2006 11 02  0155    54041    6900      0    1.70e+00    0    1.19e+00
2006 11 02  0200    54041    7200      0    1.76e+00    0    1.23e+00
2006 11 02  0205    54041    7500      0    1.69e+00    0    1.18e+00
2006 11 02  0210    54041    7800      0    1.70e+00    0    1.20e+00
2006 11 02  0215    54041    8100      0    1.71e+00    0    1.19e+00
2006 11 02  0220    54041    8400      0    1.70e+00    0    1.19e+00
2006 11 02  0225    54041    8700      0    1.69e+00    0    1.19e+00
2006 11 02  0230    54041    9000      0    1.69e+00    0    1.19e+00
2006 11 02  0235    54041    9300      0    1.72e+00    0    1.19e+00
2006 11 02  0240    54041    9600      0    1.75e+00    0    1.23e+00
2006 11 02  0245    54041    9900      0    1.69e+00    0    1.19e+00
2006 11 02  0250    54041   10200      0    1.70e+00    0    1.19e+00
2006 11 02  0255    54041   10500      0    1.72e+00    0    1.21e+00
2006 11 02  0300    54041   10800      0    1.69e+00    0    1.17e+00
2006 11 02  0305    54041   11100      0    1.71e+00    0    1.20e+00
2006 11 02  0310    54041   11400      0    1.71e+00    0    1.20e+00
2006 11 02  0315    54041   11700      0    1.73e+00    0    1.21e+00
2006 11 02  0320    54041   12000      0    1.68e+00    0    1.17e+00
2006 11 02  0325    54041   12300      0    1.70e+00    0    1.19e+00
2006 11 02  0330    54041   12600      0    1.69e+00    0    1.18e+00
2006 11 02  0335    54041   12900      0    1.64e+00    0    1.14e+00
2006 11 02  0340    54041   13200      0    1.70e+00    0    1.21e+00
2006 11 02  0345    54041   13500      0    1.65e+00    0    1.16e+00
2006 11 02  0350    54041   13800      0    1.70e+00    0    1.19e+00
2006 11 02  0355    54041   14100      0    1.67e+00    0    1.17e+00
2006 11 02  0400    54041   14400      0    1.69e+00    0    1.18e+00
2006 11 02  0405    54041   14700      0    1.69e+00    0    1.19e+00
2006 11 02  0410    54041   15000      0    1.63e+00    0    1.14e+00
2006 11 02  0415    54041   15300      0    1.67e+00    0    1.16e+00
2006 11 02  0420    54041   15600      0    1.70e+00    0    1.18e+00
2006 11 02  0425    54041   15900      0    1.66e+00    0    1.17e+00
2006 11 02  0430    54041   16200      0    1.68e+00    0    1.19e+00
2006 11 02  0435    54041   16500      0    1.69e+00    0    1.19e+00
2006 11 02  0440    54041   16800      0    1.67e+00    0    1.16e+00
2006 11 02  0445    54041   17100      0    1.71e+00    0    1.21e+00
2006 11 02  0450    54041   17400      0    1.71e+00    0    1.21e+00
2006 11 02  0455    54041   17700      0    1.68e+00    0    1.18e+00
2006 11 02  0500    54041   18000      0    1.68e+00    0    1.17e+00
2006 11 02  0505    54041   18300      0    1.65e+00    0    1.15e+00
2006 11 02  0510    54041   18600      0    1.70e+00    0    1.19e+00
2006 11 02  0515    54041   18900      0    1.64e+00    0    1.15e+00
2006 11 02  0520    54041   19200      0    1.66e+00    0    1.16e+00
2006 11 02  0525    54041   19500      0    1.63e+00    0    1.15e+00
2006 11 02  0530    54041   19800      0    1.67e+00    0    1.18e+00
2006 11 02  0535    54041   20100      0    1.70e+00    0    1.19e+00
2006 11 02  0540    54041   20400      0    1.69e+00    0    1.18e+00
2006 11 02  0545    54041   20700      0    1.67e+00    0    1.18e+00
2006 11 02  0550    54041   21000      0    1.69e+00    0    1.18e+00
2006 11 02  0555    54041   21300      0    1.65e+00    0    1.15e+00
2006 11 02  0600    54041   21600      0    1.66e+00    0    1.16e+00
2006 11 02  0605    54041   21900      0    1.67e+00    0    1.16e+00
2006 11 02  0610    54041   22200      0    1.70e+00    0    1.20e+00
2006 11 02  0615    54041   22500      0    1.72e+00    0    1.20e+00
2006 11 02  0620    54041   22800      0    1.65e+00    0    1.16e+00
2006 11 02  0625    54041   23100      0    1.65e+00    0    1.16e+00
2006 11 02  0630    54041   23400      0    1.67e+00    0    1.17e+00
2006 11 02  0635    54041   23700      0    1.64e+00    0    1.14e+00
2006 11 02  0640    54041   24000      0    1.64e+00    0    1.15e+00
2006 11 02  0645    54041   24300      0    1.71e+00    0    1.20e+00
2006 11 02  0650    54041   24600      0    1.67e+00    0    1.17e+00
2006 11 02  0655    54041   24900      0    1.68e+00    0    1.17e+00
2006 11 02  0700    54041   25200      0    1.66e+00    0    1.16e+00
2006 11 02  0705    54041   25500      0    1.70e+00    0    1.20e+00
2006 11 02  0710    54041   25800      0    1.64e+00    0    1.13e+00
2006 11 02  0715    54041   26100      0    1.66e+00    0    1.17e+00
2006 11 02  0720    54041   26400      0    1.64e+00    0    1.15e+00
2006 11 02  0725    54041   26700      0    1.69e+00    0    1.17e+00
2006 11 02  0730    54041   27000      0    1.70e+00    0    1.19e+00
2006 11 02  0735    54041   27300      0    1.65e+00    0    1.17e+00
2006 11 02  0740    54041   27600      0    1.68e+00    0    1.18e+00
2006 11 02  0745    54041   27900      0    1.67e+00    0    1.16e+00
2006 11 02  0750    54041   28200      0    1.71e+00    0    1.20e+00
2006 11 02  0755    54041   28500      0    1.70e+00    0    1.18e+00
2006 11 02  0800    54041   28800      0    1.69e+00    0    1.19e+00
2006 11 02  0805    54041   29100      0    1.67e+00    0    1.19e+00
2006 11 02  0810    54041   29400      0    1.73e+00    0    1.21e+00
2006 11 02  0815    54041   29700      0    1.66e+00    0    1.15e+00
2006 11 02  0820    54041   30000      0    1.66e+00    0    1.16e+00
2006 11 02  0825    54041   30300      0    1.70e+00    0    1.20e+00
2006 11 02  0830    54041   30600      0    1.69e+00    0    1.19e+00
2006 11 02  0835    54041   30900      0    1.70e+00    0    1.19e+00
2006 11 02  0840    54041   31200      0    1.68e+00    0    1.18e+00
2006 11 02  0845    54041   31500      0    1.67e+00    0    1.15e+00
2006 11 02  0850    54041   31800      0    1.69e+00    0    1.18e+00
2006 11 02  0855    54041   32100      0    1.73e+00    0    1.23e+00
2006 11 02  0900    54041   32400      0    1.71e+00    0    1.20e+00
2006 11 02  0905    54041   32700      0    1.75e+00    0    1.22e+00
2006 11 02  0910    54041   33000      0    1.75e+00    0    1.23e+00
2006 11 02  0915    54041   33300      0    1.71e+00    0    1.20e+00
2006 11 02  0920    54041   33600      0    1.73e+00    0    1.21e+00
2006 11 02  0925    54041   33900      0    1.70e+00    0    1.18e+00
2006 11 02  0930    54041   34200      0    1.70e+00    0    1.18e+00
2006 11 02  0935    54041   34500      0    1.70e+00    0    1.18e+00
2006 11 02  0940    54041   34800      0    1.68e+00    0    1.16e+00
2006 11 02  0945    54041   35100      0    1.67e+00    0    1.17e+00
2006 11 02  0950    54041   35400      0    1.70e+00    0    1.18e+00
2006 11 02  0955    54041   35700      0    1.66e+00    0    1.17e+00
2006 11 02  1000    54041   36000      0    1.70e+00    0    1.18e+00
2006 11 02  1005    54041   36300      0    1.65e+00    0    1.16e+00
2006 11 02  1010    54041   36600      0    1.70e+00    0    1.19e+00
2006 11 02  1015    54041   36900      0    1.67e+00    0    1.17e+00
2006 11 02  1020    54041   37200      0    1.71e+00    0    1.19e+00
2006 11 02  1025    54041   37500      0    1.68e+00    0    1.17e+00
2006 11 02  1030    54041   37800      0    1.70e+00    0    1.20e+00
2006 11 02  1035    54041   38100      0    1.65e+00    0    1.16e+00
2006 11 02  1040    54041   38400      0    1.69e+00    0    1.19e+00
2006 11 02  1045    54041   38700      0    1.70e+00    0    1.19e+00
2006 11 02  1050    54041   39000      0    1.68e+00    0    1.17e+00
2006 11 02  1055    54041   39300      0    1.68e+00    0    1.18e+00
2006 11 02  1100    54041   39600      0    1.70e+00    0    1.18e+00
2006 11 02  1105    54041   39900      0    1.67e+00    0    1.17e+00
2006 11 02  1110    54041   40200      0    1.70e+00    0    1.19e+00
2006 11 02  1115    54041   40500      0    1.64e+00    0    1.15e+00
2006 11 02  1120    54041   40800      0    1.67e+00    0    1.18e+00
2006 11 02  1125    54041   41100      0    1.70e+00    0    1.20e+00
2006 11 02  1130    54041   41400      0    1.72e+00    0    1.19e+00
2006 11 02  1135    54041   41700      0    1.70e+00    0    1.19e+00
2006 11 02  1140    54041   42000      0    1.66e+00    0    1.16e+00
2006 11 02  1145    54041   42300      0    1.68e+00    0    1.18e+00
2006 11 02  1150    54041   42600      0    1.69e+00    0    1.19e+00
2006 11 02  1155    54041   42900      0    1.71e+00    0    1.20e+00
2006 11 02  1200    54041   43200      0    1.72e+00    0    1.21e+00
2006 11 02  1205    54041   43500      0    1.72e+00    0    1.21e+00
2006 11 02  1210    54041   43800      0    1.72e+00    0    1.21e+00
2006 11 02  1215    54041   44100      0    1.71e+00    0    1.20e+00
2006 11 02  1220    54041   44400      0    1.75e+00    0    1.22e+00
2006 11 02  1225    54041   44700      0    1.68e+00    0    1.18e+00
2006 11 02  1230    54041   45000      0    1.74e+00    0    1.22e+00
2006 11 02  1235    54041   45300      0    1.71e+00    0    1.20e+00
2006 11 02  1240    54041   45600      0    1.72e+00    0    1.20e+00
2006 11 02  1245    54041   45900      0    1.71e+00    0    1.20e+00
2006 11 02  1250    54041   46200      0    1.69e+00    0    1.18e+00
2006 11 02  1255    54041   46500      0    1.69e+00    0    1.18e+00
2006 11 02  1300    54041   46800      0    1.71e+00    0    1.20e+00
2006 11 02  1305    54041   47100      0    1.65e+00    0    1.16e+00
2006 11 02  1310    54041   47400      0    1.70e+00    0    1.21e+00
2006 11 02  1315    54041   47700      0    1.70e+00    0    1.18e+00
2006 11 02  1320    54041   48000      0    1.72e+00    0    1.20e+00
2006 11 02  1325    54041   48300      0    1.72e+00    0    1.21e+00
2006 11 02  1330    54041   48600      0    1.75e+00    0    1.23e+00
2006 11 02  1335    54041   48900      0    1.71e+00    0    1.19e+00
2006 11 02  1340    54041   49200      0    1.73e+00    0    1.21e+00
2006 11 02  1345    54041   49500      0    1.73e+00    0    1.22e+00
2006 11 02  1350    54041   49800      0    1.71e+00    0    1.19e+00
2006 11 02  1355    54041   50100      0    1.76e+00    0    1.24e+00
2006 11 02  1400    54041   50400      0    1.73e+00    0    1.22e+00
2006 11 02  1405    54041   50700      0    1.76e+00    0    1.23e+00
2006 11 02  1410    54041   51000      0    1.75e+00    0    1.23e+00
2006 11 02  1415    54041   51300      0    1.75e+00    0    1.24e+00
2006 11 02  1420    54041   51600      0    1.73e+00    0    1.23e+00
2006 11 02  1425    54041   51900      0    1.76e+00    0    1.23e+00
2006 11 02  1430    54041   52200      0    1.77e+00    0    1.25e+00
2006 11 02  1435    54041   52500      0    1.73e+00    0    1.21e+00
2006 11 02  1440    54041   52800      0    1.75e+00    0    1.22e+00
2006 11 02  1445    54041   53100      0    1.75e+00    0    1.22e+00
2006 11 02  1450    54041   53400      0    1.67e+00    0    1.17e+00
2006 11 02  1455    54041   53700      0    1.72e+00    0    1.20e+00
2006 11 02  1500    54041   54000      0    1.74e+00    0    1.21e+00
2006 11 02  1505    54041   54300      0    1.73e+00    0    1.22e+00
2006 11 02  1510    54041   54600      0    1.73e+00    0    1.22e+00
2006 11 02  1515    54041   54900      0    1.76e+00    0    1.24e+00
2006 11 02  1520    54041   55200      0    1.72e+00    0    1.20e+00
2006 11 02  1525    54041   55500      0    1.77e+00    0    1.26e+00
2006 11 02  1530    54041   55800      0    1.76e+00    0    1.23e+00
2006 11 02  1535    54041   56100      0    1.76e+00    0    1.21e+00
2006 11 02  1540    54041   56400      0    1.72e+00    0    1.21e+00
2006 11 02  1545    54041   56700      0    1.73e+00    0    1.20e+00
2006 11 02  1550    54041   57000      0    1.77e+00    0    1.24e+00
2006 11 02  1555    54041   57300      0    1.73e+00    0    1.21e+00
2006 11 02  1600    54041   57600      0    1.69e+00    0    1.18e+00
2006 11 02  1605    54041   57900      0    1.72e+00    0    1.21e+00
2006 11 02  1610    54041   58200      0    1.74e+00    0    1.21e+00
2006 11 02  1615    54041   58500      0    1.75e+00    0    1.22e+00
2006 11 02  1620    54041   58800      0    1.79e+00    0    1.26e+00
2006 11 02  1625    54041   59100      0    1.74e+00    0    1.21e+00
2006 11 02  1630    54041   59400      0    1.71e+00    0    1.19e+00
2006 11 02  1635    54041   59700      0    1.76e+00    0    1.24e+00
2006 11 02  1640    54041   60000      0    1.77e+00    0    1.25e+00
2006 11 02  1645    54041   60300      0    1.77e+00    0    1.24e+00
2006 11 02  1650    54041   60600      0    1.75e+00    0    1.22e+00
2006 11 02  1655    54041   60900      0    1.75e+00    0    1.22e+00
2006 11 02  1700    54041   61200      0    1.80e+00    0    1.27e+00
2006 11 02  1705    54041   61500      0    1.77e+00    0    1.25e+00
2006 11 02  1710    54041   61800      0    1.78e+00    0    1.25e+00
2006 11 02  1715    54041   62100      0    1.73e+00    0    1.21e+00
2006 11 02  1720    54041   62400      0    1.74e+00    0    1.22e+00
2006 11 02  1725    54041   62700      0    1.80e+00    0    1.26e+00
2006 11 02  1730    54041   63000      0    1.76e+00    0    1.24e+00
2006 11 02  1735    54041   63300      0    1.73e+00    0    1.21e+00
2006 11 02  1740    54041   63600      0    1.77e+00    0    1.23e+00
2006 11 02  1745    54041   63900      0    1.74e+00    0    1.22e+00
2006 11 02  1750    54041   64200      0    1.74e+00    0    1.22e+00
2006 11 02  1755    54041   64500      0    1.73e+00    0    1.21e+00
2006 11 02  1800    54041   64800      0    1.73e+00    0    1.21e+00
2006 11 02  1805    54041   65100      0    1.75e+00    0    1.21e+00
2006 11 02  1810    54041   65400      0    1.75e+00    0    1.22e+00
2006 11 02  1815    54041   65700      0    1.73e+00    0    1.22e+00
2006 11 02  1820    54041   66000      0    1.76e+00    0    1.23e+00
2006 11 02  1825    54041   66300      0    1.74e+00    0    1.21e+00
2006 11 02  1830    54041   66600      0    1.78e+00    0    1.26e+00
2006 11 02  1835    54041   66900      0    1.78e+00    0    1.26e+00
2006 11 02  1840    54041   67200      0    1.76e+00    0    1.23e+00
2006 11 02  1845    54041   67500      0    1.77e+00    0    1.24e+00
2006 11 02  1850    54041   67800      0    1.77e+00    0    1.24e+00
2006 11 02  1855    54041   68100      0    1.77e+00    0    1.23e+00
2006 11 02  1900    54041   68400      0    1.71e+00    0    1.19e+00
2006 11 02  1905    54041   68700      0    1.76e+00    0    1.23e+00
2006 11 02  1910    54041   69000      0    1.77e+00    0    1.24e+00
2006 11 02  1915    54041   69300      0    1.75e+00    0    1.24e+00
2006 11 02  1920    54041   69600      0    1.75e+00    0    1.24e+00
2006 11 02  1925    54041   69900      0    1.75e+00    0    1.22e+00
2006 11 02  1930    54041   70200      0    1.70e+00    0    1.19e+00
2006 11 02  1935    54041   70500      0    1.79e+00    0    1.25e+00
2006 11 02  1940    54041   70800      0    1.75e+00    0    1.22e+00
2006 11 02  1945    54041   71100      0    1.73e+00    0    1.21e+00
2006 11 02  1950    54041   71400      0    1.74e+00    0    1.22e+00
2006 11 02  1955    54041   71700      0    1.80e+00    0    1.26e+00
2006 11 02  2000    54041   72000      0    1.75e+00    0    1.23e+00
2006 11 02  2005    54041   72300      0    1.72e+00    0    1.19e+00
2006 11 02  2010    54041   72600      0    1.75e+00    0    1.22e+00
2006 11 02  2015    54041   72900      0    1.73e+00    0    1.22e+00
2006 11 02  2020    54041   73200      0    1.74e+00    0    1.23e+00
2006 11 02  2025    54041   73500      0    1.75e+00    0    1.23e+00
2006 11 02  2030    54041   73800      0    1.71e+00    0    1.21e+00
2006 11 02  2035    54041   74100      0    1.79e+00    0    1.26e+00
2006 11 02  2040    54041   74400      0    1.75e+00    0    1.24e+00
2006 11 02  2045    54041   74700      0    1.72e+00    0    1.21e+00
2006 11 02  2050    54041   75000      0    1.77e+00    0    1.23e+00
2006 11 02  2055    54041   75300      0    1.78e+00    0    1.24e+00
2006 11 02  2100    54041   75600      0    1.79e+00    0    1.26e+00
2006 11 02  2105    54041   75900      0    1.70e+00    0    1.18e+00
2006 11 02  2110    54041   76200      0    1.71e+00    0    1.19e+00
2006 11 02  2115    54041   76500      0    1.70e+00    0    1.19e+00
2006 11 02  2120    54041   76800      0    1.70e+00    0    1.18e+00
2006 11 02  2125    54041   77100      0    1.71e+00    0    1.20e+00
2006 11 02  2130    54041   77400      0    1.73e+00    0    1.21e+00
2006 11 02  2135    54041   77700      0    1.74e+00    0    1.22e+00
2006 11 02  2140    54041   78000      0    1.72e+00    0    1.20e+00
2006 11 02  2145    54041   78300      0    1.76e+00    0    1.25e+00
2006 11 02  2150    54041   78600      0    1.75e+00    0    1.21e+00
2006 11 02  2155    54041   78900      0    1.78e+00    0    1.25e+00
2006 11 02  2200    54041   79200      0    1.70e+00    0    1.19e+00
2006 11 02  2205    54041   79500      0    1.73e+00    0    1.22e+00
2006 11 02  2210    54041   79800      0    1.74e+00    0    1.22e+00
2006 11 02  2215    54041   80100      0    1.71e+00    0    1.19e+00
2006 11 02  2220    54041   80400      0    1.73e+00    0    1.22e+00
2006 11 02  2225    54041   80700      0    1.70e+00    0    1.19e+00
2006 11 02  2230    54041   81000      0    1.72e+00    0    1.20e+00
2006 11 02  2235    54041   81300      0    1.73e+00    0    1.20e+00
2006 11 02  2240    54041   81600      0    1.73e+00    0    1.21e+00
2006 11 02  2245    54041   81900      0    1.70e+00    0    1.19e+00
2006 11 02  2250    54041   82200      0    1.70e+00    0    1.21e+00
2006 11 02  2255    54041   82500      0    1.75e+00    0    1.23e+00
2006 11 02  2300    54041   82800      0    1.72e+00    0    1.19e+00
2006 11 02  2305    54041   83100      0    1.69e+00    0    1.18e+00
2006 11 02  2310    54041   83400      0    1.74e+00    0    1.22e+00
2006 11 02  2315    54041   83700      0    1.76e+00    0    1.24e+00
2006 11 02  2320    54041   84000      0    1.74e+00    0    1.22e+00
2006 11 02  2325    54041   84300      0    1.72e+00    0    1.20e+00
2006 11 02  2330    54041   84600      0    1.73e+00    0    1.21e+00
2006 11 02  2335    54041   84900      0    1.70e+00    0    1.18e+00
2006 11 02  2340    54041   85200      0    1.73e+00    0    1.22e+00
2006 11 02  2345    54041   85500      0    1.71e+00    0    1.20e+00
2006 11 02  2350    54041   85800      0    1.74e+00    0    1.22e+00
2006 11 02  2355    54041   86100      0    1.72e+00    0    1.21e+00
