:Data_list: 20060811_ace_sis_5m.txt
:Created: 2006 Aug 12 0011 UT
# Prepared by the U.S. Dept. of Commerce, NOAA, Space Environment Center.
# Please send comments and suggestions to SEC.Webmaster@noaa.gov 
# 
# Units: proton flux p/cs2-sec-ster
# Status(S): 0 = nominal data, 1 to 8 = bad data record, 9 = no data
# Missing data values: -1.00e+05
# Source: ACE Satellite - Solar Isotope Spectrometer
#
# 5-minute averaged Real-time Integral Flux of High-energy Solar Protons
# 
#                 Modified Seconds
# UT Date   Time   Julian  of the      ---- Integral Proton Flux ----
# YR MO DA  HHMM     Day     Day       S    > 10 MeV    S    > 30 MeV
#--------------------------------------------------------------------
2006 08 11  0000    53958       0      0    1.66e+00    0    1.16e+00
2006 08 11  0005    53958     300      0    1.63e+00    0    1.17e+00
2006 08 11  0010    53958     600      0    1.54e+00    0    1.07e+00
2006 08 11  0015    53958     900      0    1.63e+00    0    1.13e+00
2006 08 11  0020    53958    1200      0    1.65e+00    0    1.16e+00
2006 08 11  0025    53958    1500      0    1.61e+00    0    1.13e+00
2006 08 11  0030    53958    1800      0    1.60e+00    0    1.12e+00
2006 08 11  0035    53958    2100      0    1.55e+00    0    1.08e+00
2006 08 11  0040    53958    2400      0    1.63e+00    0    1.13e+00
2006 08 11  0045    53958    2700      0    1.64e+00    0    1.16e+00
2006 08 11  0050    53958    3000      0    1.63e+00    0    1.14e+00
2006 08 11  0055    53958    3300      0    1.63e+00    0    1.15e+00
2006 08 11  0100    53958    3600      0    1.65e+00    0    1.16e+00
2006 08 11  0105    53958    3900      0    1.63e+00    0    1.15e+00
2006 08 11  0110    53958    4200      0    1.62e+00    0    1.14e+00
2006 08 11  0115    53958    4500      0    1.64e+00    0    1.16e+00
2006 08 11  0120    53958    4800      0    1.63e+00    0    1.14e+00
2006 08 11  0125    53958    5100      0    1.64e+00    0    1.15e+00
2006 08 11  0130    53958    5400      0    1.63e+00    0    1.14e+00
2006 08 11  0135    53958    5700      0    1.69e+00    0    1.19e+00
2006 08 11  0140    53958    6000      0    1.65e+00    0    1.16e+00
2006 08 11  0145    53958    6300      0    1.68e+00    0    1.18e+00
2006 08 11  0150    53958    6600      0    1.64e+00    0    1.15e+00
2006 08 11  0155    53958    6900      0    1.63e+00    0    1.14e+00
2006 08 11  0200    53958    7200      0    1.66e+00    0    1.17e+00
2006 08 11  0205    53958    7500      0    1.68e+00    0    1.17e+00
2006 08 11  0210    53958    7800      0    1.66e+00    0    1.17e+00
2006 08 11  0215    53958    8100      0    1.64e+00    0    1.15e+00
2006 08 11  0220    53958    8400      0    1.65e+00    0    1.17e+00
2006 08 11  0225    53958    8700      0    1.66e+00    0    1.16e+00
2006 08 11  0230    53958    9000      0    1.66e+00    0    1.16e+00
2006 08 11  0235    53958    9300      0    1.65e+00    0    1.15e+00
2006 08 11  0240    53958    9600      0    1.67e+00    0    1.17e+00
2006 08 11  0245    53958    9900      0    1.66e+00    0    1.18e+00
2006 08 11  0250    53958   10200      0    1.65e+00    0    1.15e+00
2006 08 11  0255    53958   10500      0    1.65e+00    0    1.16e+00
2006 08 11  0300    53958   10800      0    1.64e+00    0    1.15e+00
2006 08 11  0305    53958   11100      0    1.66e+00    0    1.15e+00
2006 08 11  0310    53958   11400      0    1.66e+00    0    1.16e+00
2006 08 11  0315    53958   11700      0    1.67e+00    0    1.18e+00
2006 08 11  0320    53958   12000      0    1.66e+00    0    1.16e+00
2006 08 11  0325    53958   12300      0    1.63e+00    0    1.14e+00
2006 08 11  0330    53958   12600      0    1.64e+00    0    1.16e+00
2006 08 11  0335    53958   12900      0    1.66e+00    0    1.16e+00
2006 08 11  0340    53958   13200      0    1.68e+00    0    1.19e+00
2006 08 11  0345    53958   13500      0    1.62e+00    0    1.14e+00
2006 08 11  0350    53958   13800      0    1.63e+00    0    1.14e+00
2006 08 11  0355    53958   14100      0    1.69e+00    0    1.18e+00
2006 08 11  0400    53958   14400      0    1.61e+00    0    1.13e+00
2006 08 11  0405    53958   14700      0    1.62e+00    0    1.14e+00
2006 08 11  0410    53958   15000      0    1.65e+00    0    1.16e+00
2006 08 11  0415    53958   15300      0    1.62e+00    0    1.15e+00
2006 08 11  0420    53958   15600      0    1.65e+00    0    1.16e+00
2006 08 11  0425    53958   15900      0    1.63e+00    0    1.13e+00
2006 08 11  0430    53958   16200      0    1.63e+00    0    1.14e+00
2006 08 11  0435    53958   16500      0    1.64e+00    0    1.15e+00
2006 08 11  0440    53958   16800      0    1.67e+00    0    1.17e+00
2006 08 11  0445    53958   17100      0    1.67e+00    0    1.16e+00
2006 08 11  0450    53958   17400      0    1.64e+00    0    1.16e+00
2006 08 11  0455    53958   17700      0    1.64e+00    0    1.15e+00
2006 08 11  0500    53958   18000      0    1.69e+00    0    1.17e+00
2006 08 11  0505    53958   18300      0    1.62e+00    0    1.13e+00
2006 08 11  0510    53958   18600      0    1.66e+00    0    1.17e+00
2006 08 11  0515    53958   18900      0    1.63e+00    0    1.14e+00
2006 08 11  0520    53958   19200      0    1.68e+00    0    1.19e+00
2006 08 11  0525    53958   19500      0    1.62e+00    0    1.12e+00
2006 08 11  0530    53958   19800      0    1.65e+00    0    1.15e+00
2006 08 11  0535    53958   20100      0    1.62e+00    0    1.14e+00
2006 08 11  0540    53958   20400      0    1.67e+00    0    1.17e+00
2006 08 11  0545    53958   20700      0    1.59e+00    0    1.10e+00
2006 08 11  0550    53958   21000      0    1.63e+00    0    1.14e+00
2006 08 11  0555    53958   21300      0    1.64e+00    0    1.15e+00
2006 08 11  0600    53958   21600      0    1.64e+00    0    1.15e+00
2006 08 11  0605    53958   21900      0    1.67e+00    0    1.18e+00
2006 08 11  0610    53958   22200      0    1.68e+00    0    1.18e+00
2006 08 11  0615    53958   22500      0    1.64e+00    0    1.15e+00
2006 08 11  0620    53958   22800      0    1.64e+00    0    1.16e+00
2006 08 11  0625    53958   23100      0    1.67e+00    0    1.19e+00
2006 08 11  0630    53958   23400      0    1.63e+00    0    1.15e+00
2006 08 11  0635    53958   23700      0    1.66e+00    0    1.17e+00
2006 08 11  0640    53958   24000      0    1.67e+00    0    1.17e+00
2006 08 11  0645    53958   24300      0    1.67e+00    0    1.18e+00
2006 08 11  0650    53958   24600      0    1.66e+00    0    1.16e+00
2006 08 11  0655    53958   24900      0    1.69e+00    0    1.20e+00
2006 08 11  0700    53958   25200      0    1.61e+00    0    1.13e+00
2006 08 11  0705    53958   25500      0    1.64e+00    0    1.15e+00
2006 08 11  0710    53958   25800      0    1.67e+00    0    1.17e+00
2006 08 11  0715    53958   26100      0    1.66e+00    0    1.16e+00
2006 08 11  0720    53958   26400      0    1.64e+00    0    1.14e+00
2006 08 11  0725    53958   26700      0    1.65e+00    0    1.15e+00
2006 08 11  0730    53958   27000      0    1.63e+00    0    1.14e+00
2006 08 11  0735    53958   27300      0    1.67e+00    0    1.18e+00
2006 08 11  0740    53958   27600      0    1.64e+00    0    1.16e+00
2006 08 11  0745    53958   27900      0    1.65e+00    0    1.15e+00
2006 08 11  0750    53958   28200      0    1.66e+00    0    1.16e+00
2006 08 11  0755    53958   28500      0    1.66e+00    0    1.15e+00
2006 08 11  0800    53958   28800      0    1.62e+00    0    1.14e+00
2006 08 11  0805    53958   29100      0    1.67e+00    0    1.17e+00
2006 08 11  0810    53958   29400      0    1.65e+00    0    1.15e+00
2006 08 11  0815    53958   29700      0    1.65e+00    0    1.15e+00
2006 08 11  0820    53958   30000      0    1.62e+00    0    1.13e+00
2006 08 11  0825    53958   30300      0    1.66e+00    0    1.17e+00
2006 08 11  0830    53958   30600      0    1.65e+00    0    1.16e+00
2006 08 11  0835    53958   30900      0    1.68e+00    0    1.17e+00
2006 08 11  0840    53958   31200      0    1.66e+00    0    1.17e+00
2006 08 11  0845    53958   31500      0    1.62e+00    0    1.13e+00
2006 08 11  0850    53958   31800      0    1.61e+00    0    1.13e+00
2006 08 11  0855    53958   32100      0    1.65e+00    0    1.15e+00
2006 08 11  0900    53958   32400      0    1.64e+00    0    1.15e+00
2006 08 11  0905    53958   32700      0    1.65e+00    0    1.17e+00
2006 08 11  0910    53958   33000      0    1.64e+00    0    1.15e+00
2006 08 11  0915    53958   33300      0    1.69e+00    0    1.19e+00
2006 08 11  0920    53958   33600      0    1.63e+00    0    1.14e+00
2006 08 11  0925    53958   33900      0    1.66e+00    0    1.15e+00
2006 08 11  0930    53958   34200      0    1.68e+00    0    1.17e+00
2006 08 11  0935    53958   34500      0    1.69e+00    0    1.18e+00
2006 08 11  0940    53958   34800      0    1.65e+00    0    1.14e+00
2006 08 11  0945    53958   35100      0    1.64e+00    0    1.13e+00
2006 08 11  0950    53958   35400      0    1.65e+00    0    1.16e+00
2006 08 11  0955    53958   35700      0    1.67e+00    0    1.17e+00
2006 08 11  1000    53958   36000      0    1.66e+00    0    1.17e+00
2006 08 11  1005    53958   36300      0    1.73e+00    0    1.23e+00
2006 08 11  1010    53958   36600      0    1.64e+00    0    1.14e+00
2006 08 11  1015    53958   36900      0    1.65e+00    0    1.17e+00
2006 08 11  1020    53958   37200      0    1.70e+00    0    1.20e+00
2006 08 11  1025    53958   37500      0    1.65e+00    0    1.16e+00
2006 08 11  1030    53958   37800      0    1.65e+00    0    1.16e+00
2006 08 11  1035    53958   38100      0    1.66e+00    0    1.17e+00
2006 08 11  1040    53958   38400      0    1.66e+00    0    1.16e+00
2006 08 11  1045    53958   38700      0    1.62e+00    0    1.13e+00
2006 08 11  1050    53958   39000      0    1.61e+00    0    1.13e+00
2006 08 11  1055    53958   39300      0    1.66e+00    0    1.18e+00
2006 08 11  1100    53958   39600      0    1.63e+00    0    1.14e+00
2006 08 11  1105    53958   39900      0    1.67e+00    0    1.18e+00
2006 08 11  1110    53958   40200      0    1.65e+00    0    1.15e+00
2006 08 11  1115    53958   40500      0    1.66e+00    0    1.17e+00
2006 08 11  1120    53958   40800      0    1.65e+00    0    1.15e+00
2006 08 11  1125    53958   41100      0    1.63e+00    0    1.14e+00
2006 08 11  1130    53958   41400      0    1.68e+00    0    1.17e+00
2006 08 11  1135    53958   41700      0    1.62e+00    0    1.13e+00
2006 08 11  1140    53958   42000      0    1.64e+00    0    1.15e+00
2006 08 11  1145    53958   42300      0    1.64e+00    0    1.15e+00
2006 08 11  1150    53958   42600      0    1.63e+00    0    1.14e+00
2006 08 11  1155    53958   42900      0    1.66e+00    0    1.16e+00
2006 08 11  1200    53958   43200      0    1.65e+00    0    1.16e+00
2006 08 11  1205    53958   43500      0    1.62e+00    0    1.14e+00
2006 08 11  1210    53958   43800      0    1.67e+00    0    1.17e+00
2006 08 11  1215    53958   44100      0    1.65e+00    0    1.15e+00
2006 08 11  1220    53958   44400      0    1.63e+00    0    1.14e+00
2006 08 11  1225    53958   44700      0    1.67e+00    0    1.17e+00
2006 08 11  1230    53958   45000      0    1.63e+00    0    1.14e+00
2006 08 11  1235    53958   45300      0    1.64e+00    0    1.14e+00
2006 08 11  1240    53958   45600      0    1.66e+00    0    1.16e+00
2006 08 11  1245    53958   45900      0    1.63e+00    0    1.13e+00
2006 08 11  1250    53958   46200      0    1.66e+00    0    1.15e+00
2006 08 11  1255    53958   46500      0    1.64e+00    0    1.15e+00
2006 08 11  1300    53958   46800      0    1.66e+00    0    1.15e+00
2006 08 11  1305    53958   47100      0    1.64e+00    0    1.14e+00
2006 08 11  1310    53958   47400      0    1.58e+00    0    1.10e+00
2006 08 11  1315    53958   47700      0    1.64e+00    0    1.15e+00
2006 08 11  1320    53958   48000      0    1.65e+00    0    1.15e+00
2006 08 11  1325    53958   48300      0    1.64e+00    0    1.14e+00
2006 08 11  1330    53958   48600      0    1.60e+00    0    1.12e+00
2006 08 11  1335    53958   48900      0    1.63e+00    0    1.14e+00
2006 08 11  1340    53958   49200      0    1.66e+00    0    1.17e+00
2006 08 11  1345    53958   49500      0    1.65e+00    0    1.16e+00
2006 08 11  1350    53958   49800      0    1.65e+00    0    1.15e+00
2006 08 11  1355    53958   50100      0    1.65e+00    0    1.15e+00
2006 08 11  1400    53958   50400      0    1.64e+00    0    1.15e+00
2006 08 11  1405    53958   50700      0    1.64e+00    0    1.16e+00
2006 08 11  1410    53958   51000      0    1.67e+00    0    1.17e+00
2006 08 11  1415    53958   51300      0    1.66e+00    0    1.16e+00
2006 08 11  1420    53958   51600      0    1.65e+00    0    1.17e+00
2006 08 11  1425    53958   51900      0    1.65e+00    0    1.16e+00
2006 08 11  1430    53958   52200      0    1.64e+00    0    1.15e+00
2006 08 11  1435    53958   52500      0    1.65e+00    0    1.15e+00
2006 08 11  1440    53958   52800      0    1.65e+00    0    1.15e+00
2006 08 11  1445    53958   53100      0    1.67e+00    0    1.19e+00
2006 08 11  1450    53958   53400      0    1.64e+00    0    1.15e+00
2006 08 11  1455    53958   53700      0    1.66e+00    0    1.17e+00
2006 08 11  1500    53958   54000      0    1.68e+00    0    1.19e+00
2006 08 11  1505    53958   54300      0    1.67e+00    0    1.16e+00
2006 08 11  1510    53958   54600      0    1.66e+00    0    1.16e+00
2006 08 11  1515    53958   54900      0    1.66e+00    0    1.16e+00
2006 08 11  1520    53958   55200      0    1.66e+00    0    1.15e+00
2006 08 11  1525    53958   55500      0    1.63e+00    0    1.15e+00
2006 08 11  1530    53958   55800      0    1.64e+00    0    1.14e+00
2006 08 11  1535    53958   56100      0    1.67e+00    0    1.17e+00
2006 08 11  1540    53958   56400      0    1.64e+00    0    1.14e+00
2006 08 11  1545    53958   56700      0    1.68e+00    0    1.17e+00
2006 08 11  1550    53958   57000      0    1.64e+00    0    1.15e+00
2006 08 11  1555    53958   57300      0    1.65e+00    0    1.15e+00
2006 08 11  1600    53958   57600      0    1.68e+00    0    1.18e+00
2006 08 11  1605    53958   57900      0    1.70e+00    0    1.20e+00
2006 08 11  1610    53958   58200      0    1.66e+00    0    1.16e+00
2006 08 11  1615    53958   58500      0    1.66e+00    0    1.16e+00
2006 08 11  1620    53958   58800      0    1.64e+00    0    1.15e+00
2006 08 11  1625    53958   59100      0    1.64e+00    0    1.14e+00
2006 08 11  1630    53958   59400      0    1.68e+00    0    1.18e+00
2006 08 11  1635    53958   59700      0    1.64e+00    0    1.15e+00
2006 08 11  1640    53958   60000      0    1.67e+00    0    1.17e+00
2006 08 11  1645    53958   60300      0    1.65e+00    0    1.15e+00
2006 08 11  1650    53958   60600      0    1.77e+00    0    1.16e+00
2006 08 11  1655    53958   60900      0    1.65e+00    0    1.15e+00
2006 08 11  1700    53958   61200      0    1.66e+00    0    1.17e+00
2006 08 11  1705    53958   61500      0    1.65e+00    0    1.15e+00
2006 08 11  1710    53958   61800      0    1.65e+00    0    1.16e+00
2006 08 11  1715    53958   62100      0    1.62e+00    0    1.15e+00
2006 08 11  1720    53958   62400      0    1.68e+00    0    1.18e+00
2006 08 11  1725    53958   62700      0    1.64e+00    0    1.16e+00
2006 08 11  1730    53958   63000      0    1.64e+00    0    1.15e+00
2006 08 11  1735    53958   63300      0    1.67e+00    0    1.16e+00
2006 08 11  1740    53958   63600      0    1.67e+00    0    1.16e+00
2006 08 11  1745    53958   63900      0    1.61e+00    0    1.13e+00
2006 08 11  1750    53958   64200      0    1.67e+00    0    1.16e+00
2006 08 11  1755    53958   64500      0    1.71e+00    0    1.20e+00
2006 08 11  1800    53958   64800      0    1.67e+00    0    1.17e+00
2006 08 11  1805    53958   65100      0    1.68e+00    0    1.18e+00
2006 08 11  1810    53958   65400      0    1.65e+00    0    1.15e+00
2006 08 11  1815    53958   65700      0    1.70e+00    0    1.19e+00
2006 08 11  1820    53958   66000      0    1.68e+00    0    1.17e+00
2006 08 11  1825    53958   66300      0    1.66e+00    0    1.17e+00
2006 08 11  1830    53958   66600      0    1.65e+00    0    1.16e+00
2006 08 11  1835    53958   66900      0    1.68e+00    0    1.18e+00
2006 08 11  1840    53958   67200      0    1.70e+00    0    1.19e+00
2006 08 11  1845    53958   67500      0    1.68e+00    0    1.18e+00
2006 08 11  1850    53958   67800      0    1.66e+00    0    1.16e+00
2006 08 11  1855    53958   68100      0    1.67e+00    0    1.18e+00
2006 08 11  1900    53958   68400      0    1.59e+00    0    1.12e+00
2006 08 11  1905    53958   68700      0    1.65e+00    0    1.16e+00
2006 08 11  1910    53958   69000      0    1.66e+00    0    1.17e+00
2006 08 11  1915    53958   69300      0    1.68e+00    0    1.18e+00
2006 08 11  1920    53958   69600      0    1.64e+00    0    1.15e+00
2006 08 11  1925    53958   69900      0    1.65e+00    0    1.15e+00
2006 08 11  1930    53958   70200      0    1.66e+00    0    1.18e+00
2006 08 11  1935    53958   70500      0    1.66e+00    0    1.16e+00
2006 08 11  1940    53958   70800      0    1.67e+00    0    1.18e+00
2006 08 11  1945    53958   71100      0    1.66e+00    0    1.16e+00
2006 08 11  1950    53958   71400      0    1.67e+00    0    1.18e+00
2006 08 11  1955    53958   71700      0    1.67e+00    0    1.17e+00
2006 08 11  2000    53958   72000      0    1.65e+00    0    1.15e+00
2006 08 11  2005    53958   72300      0    1.65e+00    0    1.15e+00
2006 08 11  2010    53958   72600      0    1.64e+00    0    1.16e+00
2006 08 11  2015    53958   72900      0    1.64e+00    0    1.15e+00
2006 08 11  2020    53958   73200      0    1.66e+00    0    1.17e+00
2006 08 11  2025    53958   73500      0    1.63e+00    0    1.15e+00
2006 08 11  2030    53958   73800      0    1.68e+00    0    1.18e+00
2006 08 11  2035    53958   74100      0    1.64e+00    0    1.16e+00
2006 08 11  2040    53958   74400      0    1.66e+00    0    1.16e+00
2006 08 11  2045    53958   74700      0    1.67e+00    0    1.18e+00
2006 08 11  2050    53958   75000      0    1.65e+00    0    1.16e+00
2006 08 11  2055    53958   75300      0    1.72e+00    0    1.21e+00
2006 08 11  2100    53958   75600      0    1.69e+00    0    1.18e+00
2006 08 11  2105    53958   75900      0    1.65e+00    0    1.17e+00
2006 08 11  2110    53958   76200      0    1.65e+00    0    1.16e+00
2006 08 11  2115    53958   76500      0    1.63e+00    0    1.14e+00
2006 08 11  2120    53958   76800      0    1.67e+00    0    1.17e+00
2006 08 11  2125    53958   77100      0    1.66e+00    0    1.16e+00
2006 08 11  2130    53958   77400      0    1.68e+00    0    1.18e+00
2006 08 11  2135    53958   77700      0    1.67e+00    0    1.17e+00
2006 08 11  2140    53958   78000      0    1.67e+00    0    1.18e+00
2006 08 11  2145    53958   78300      0    1.67e+00    0    1.17e+00
2006 08 11  2150    53958   78600      0    1.67e+00    0    1.17e+00
2006 08 11  2155    53958   78900      0    1.71e+00    0    1.19e+00
2006 08 11  2200    53958   79200      0    1.69e+00    0    1.18e+00
2006 08 11  2205    53958   79500      0    1.66e+00    0    1.16e+00
2006 08 11  2210    53958   79800      0    1.64e+00    0    1.15e+00
2006 08 11  2215    53958   80100      0    1.66e+00    0    1.18e+00
2006 08 11  2220    53958   80400      0    1.69e+00    0    1.18e+00
2006 08 11  2225    53958   80700      0    1.65e+00    0    1.17e+00
2006 08 11  2230    53958   81000      0    1.64e+00    0    1.16e+00
2006 08 11  2235    53958   81300      0    1.66e+00    0    1.16e+00
2006 08 11  2240    53958   81600      0    1.62e+00    0    1.13e+00
2006 08 11  2245    53958   81900      0    1.66e+00    0    1.15e+00
2006 08 11  2250    53958   82200      0    1.70e+00    0    1.20e+00
2006 08 11  2255    53958   82500      0    1.64e+00    0    1.15e+00
2006 08 11  2300    53958   82800      0    1.67e+00    0    1.17e+00
2006 08 11  2305    53958   83100      0    1.63e+00    0    1.15e+00
2006 08 11  2310    53958   83400      0    1.64e+00    0    1.14e+00
2006 08 11  2315    53958   83700      0    1.66e+00    0    1.18e+00
2006 08 11  2320    53958   84000      0    1.64e+00    0    1.16e+00
2006 08 11  2325    53958   84300      0    1.67e+00    0    1.16e+00
2006 08 11  2330    53958   84600      0    1.68e+00    0    1.18e+00
2006 08 11  2335    53958   84900      0    1.62e+00    0    1.14e+00
2006 08 11  2340    53958   85200      0    1.63e+00    0    1.15e+00
2006 08 11  2345    53958   85500      0    1.67e+00    0    1.17e+00
2006 08 11  2350    53958   85800      0    1.58e+00    0    1.12e+00
2006 08 11  2355    53958   86100      0    1.56e+00    0    1.08e+00
