:Data_list: 20061026_ace_sis_5m.txt
:Created: 2006 Oct 27 0011 UT
# Prepared by the U.S. Dept. of Commerce, NOAA, Space Environment Center.
# Please send comments and suggestions to SEC.Webmaster@noaa.gov 
# 
# Units: proton flux p/cs2-sec-ster
# Status(S): 0 = nominal data, 1 to 8 = bad data record, 9 = no data
# Missing data values: -1.00e+05
# Source: ACE Satellite - Solar Isotope Spectrometer
#
# 5-minute averaged Real-time Integral Flux of High-energy Solar Protons
# 
#                 Modified Seconds
# UT Date   Time   Julian  of the      ---- Integral Proton Flux ----
# YR MO DA  HHMM     Day     Day       S    > 10 MeV    S    > 30 MeV
#--------------------------------------------------------------------
2006 10 26  0000    54034       0      0    1.67e+00    0    1.16e+00
2006 10 26  0005    54034     300      0    1.70e+00    0    1.19e+00
2006 10 26  0010    54034     600      0    1.72e+00    0    1.20e+00
2006 10 26  0015    54034     900      0    1.71e+00    0    1.19e+00
2006 10 26  0020    54034    1200      0    1.69e+00    0    1.19e+00
2006 10 26  0025    54034    1500      0    1.67e+00    0    1.17e+00
2006 10 26  0030    54034    1800      0    1.69e+00    0    1.18e+00
2006 10 26  0035    54034    2100      0    1.71e+00    0    1.21e+00
2006 10 26  0040    54034    2400      0    1.70e+00    0    1.19e+00
2006 10 26  0045    54034    2700      0    1.70e+00    0    1.21e+00
2006 10 26  0050    54034    3000      0    1.71e+00    0    1.19e+00
2006 10 26  0055    54034    3300      0    1.69e+00    0    1.19e+00
2006 10 26  0100    54034    3600      0    1.71e+00    0    1.20e+00
2006 10 26  0105    54034    3900      0    1.67e+00    0    1.17e+00
2006 10 26  0110    54034    4200      0    1.72e+00    0    1.21e+00
2006 10 26  0115    54034    4500      0    1.72e+00    0    1.21e+00
2006 10 26  0120    54034    4800      0    1.74e+00    0    1.22e+00
2006 10 26  0125    54034    5100      0    1.71e+00    0    1.20e+00
2006 10 26  0130    54034    5400      0    1.67e+00    0    1.18e+00
2006 10 26  0135    54034    5700      0    1.70e+00    0    1.18e+00
2006 10 26  0140    54034    6000      0    1.75e+00    0    1.22e+00
2006 10 26  0145    54034    6300      0    1.71e+00    0    1.20e+00
2006 10 26  0150    54034    6600      0    1.71e+00    0    1.20e+00
2006 10 26  0155    54034    6900      0    1.72e+00    0    1.21e+00
2006 10 26  0200    54034    7200      0    1.73e+00    0    1.22e+00
2006 10 26  0205    54034    7500      0    1.69e+00    0    1.17e+00
2006 10 26  0210    54034    7800      0    1.70e+00    0    1.20e+00
2006 10 26  0215    54034    8100      0    1.73e+00    0    1.22e+00
2006 10 26  0220    54034    8400      0    1.73e+00    0    1.20e+00
2006 10 26  0225    54034    8700      0    1.69e+00    0    1.18e+00
2006 10 26  0230    54034    9000      0    1.70e+00    0    1.19e+00
2006 10 26  0235    54034    9300      0    1.68e+00    0    1.17e+00
2006 10 26  0240    54034    9600      0    1.71e+00    0    1.19e+00
2006 10 26  0245    54034    9900      0    1.71e+00    0    1.19e+00
2006 10 26  0250    54034   10200      0    1.71e+00    0    1.18e+00
2006 10 26  0255    54034   10500      0    1.70e+00    0    1.19e+00
2006 10 26  0300    54034   10800      0    1.68e+00    0    1.19e+00
2006 10 26  0305    54034   11100      0    1.68e+00    0    1.18e+00
2006 10 26  0310    54034   11400      0    1.73e+00    0    1.22e+00
2006 10 26  0315    54034   11700      0    1.71e+00    0    1.20e+00
2006 10 26  0320    54034   12000      0    1.68e+00    0    1.19e+00
2006 10 26  0325    54034   12300      0    1.71e+00    0    1.21e+00
2006 10 26  0330    54034   12600      0    1.69e+00    0    1.19e+00
2006 10 26  0335    54034   12900      0    1.65e+00    0    1.13e+00
2006 10 26  0340    54034   13200      0    1.69e+00    0    1.18e+00
2006 10 26  0345    54034   13500      0    1.68e+00    0    1.18e+00
2006 10 26  0350    54034   13800      0    1.71e+00    0    1.20e+00
2006 10 26  0355    54034   14100      0    1.72e+00    0    1.21e+00
2006 10 26  0400    54034   14400      0    1.69e+00    0    1.18e+00
2006 10 26  0405    54034   14700      0    1.71e+00    0    1.20e+00
2006 10 26  0410    54034   15000      0    1.71e+00    0    1.21e+00
2006 10 26  0415    54034   15300      0    1.75e+00    0    1.23e+00
2006 10 26  0420    54034   15600      9   -1.00e+05    9   -1.00e+05
2006 10 26  0425    54034   15900      9   -1.00e+05    9   -1.00e+05
2006 10 26  0430    54034   16200      9   -1.00e+05    9   -1.00e+05
2006 10 26  0435    54034   16500      9   -1.00e+05    9   -1.00e+05
2006 10 26  0440    54034   16800      9   -1.00e+05    9   -1.00e+05
2006 10 26  0445    54034   17100      9   -1.00e+05    9   -1.00e+05
2006 10 26  0450    54034   17400      9   -1.00e+05    9   -1.00e+05
2006 10 26  0455    54034   17700      9   -1.00e+05    9   -1.00e+05
2006 10 26  0500    54034   18000      0    1.72e+00    0    1.20e+00
2006 10 26  0505    54034   18300      0    1.71e+00    0    1.19e+00
2006 10 26  0510    54034   18600      0    1.70e+00    0    1.21e+00
2006 10 26  0515    54034   18900      0    1.70e+00    0    1.19e+00
2006 10 26  0520    54034   19200      0    1.73e+00    0    1.21e+00
2006 10 26  0525    54034   19500      0    1.69e+00    0    1.18e+00
2006 10 26  0530    54034   19800      0    1.73e+00    0    1.20e+00
2006 10 26  0535    54034   20100      0    1.69e+00    0    1.18e+00
2006 10 26  0540    54034   20400      0    1.70e+00    0    1.19e+00
2006 10 26  0545    54034   20700      0    1.71e+00    0    1.20e+00
2006 10 26  0550    54034   21000      0    1.69e+00    0    1.19e+00
2006 10 26  0555    54034   21300      0    1.71e+00    0    1.20e+00
2006 10 26  0600    54034   21600      0    1.69e+00    0    1.20e+00
2006 10 26  0605    54034   21900      0    1.70e+00    0    1.20e+00
2006 10 26  0610    54034   22200      0    1.68e+00    0    1.17e+00
2006 10 26  0615    54034   22500      0    1.70e+00    0    1.18e+00
2006 10 26  0620    54034   22800      0    1.71e+00    0    1.21e+00
2006 10 26  0625    54034   23100      0    1.70e+00    0    1.18e+00
2006 10 26  0630    54034   23400      0    1.68e+00    0    1.17e+00
2006 10 26  0635    54034   23700      0    1.72e+00    0    1.21e+00
2006 10 26  0640    54034   24000      0    1.72e+00    0    1.21e+00
2006 10 26  0645    54034   24300      0    1.70e+00    0    1.19e+00
2006 10 26  0650    54034   24600      0    1.68e+00    0    1.18e+00
2006 10 26  0655    54034   24900      0    1.71e+00    0    1.20e+00
2006 10 26  0700    54034   25200      0    1.69e+00    0    1.20e+00
2006 10 26  0705    54034   25500      0    1.71e+00    0    1.18e+00
2006 10 26  0710    54034   25800      0    1.70e+00    0    1.18e+00
2006 10 26  0715    54034   26100      0    1.70e+00    0    1.20e+00
2006 10 26  0720    54034   26400      0    1.71e+00    0    1.21e+00
2006 10 26  0725    54034   26700      0    1.70e+00    0    1.19e+00
2006 10 26  0730    54034   27000      0    1.71e+00    0    1.21e+00
2006 10 26  0735    54034   27300      0    1.73e+00    0    1.22e+00
2006 10 26  0740    54034   27600      0    1.70e+00    0    1.20e+00
2006 10 26  0745    54034   27900      0    1.70e+00    0    1.18e+00
2006 10 26  0750    54034   28200      0    1.72e+00    0    1.21e+00
2006 10 26  0755    54034   28500      0    1.70e+00    0    1.20e+00
2006 10 26  0800    54034   28800      0    1.71e+00    0    1.22e+00
2006 10 26  0805    54034   29100      0    1.69e+00    0    1.19e+00
2006 10 26  0810    54034   29400      0    1.69e+00    0    1.19e+00
2006 10 26  0815    54034   29700      0    1.70e+00    0    1.18e+00
2006 10 26  0820    54034   30000      0    1.72e+00    0    1.20e+00
2006 10 26  0825    54034   30300      0    1.69e+00    0    1.19e+00
2006 10 26  0830    54034   30600      0    1.68e+00    0    1.18e+00
2006 10 26  0835    54034   30900      0    1.70e+00    0    1.19e+00
2006 10 26  0840    54034   31200      0    1.70e+00    0    1.20e+00
2006 10 26  0845    54034   31500      0    1.69e+00    0    1.18e+00
2006 10 26  0850    54034   31800      0    1.68e+00    0    1.17e+00
2006 10 26  0855    54034   32100      0    1.71e+00    0    1.20e+00
2006 10 26  0900    54034   32400      0    1.70e+00    0    1.21e+00
2006 10 26  0905    54034   32700      0    1.71e+00    0    1.20e+00
2006 10 26  0910    54034   33000      0    1.70e+00    0    1.19e+00
2006 10 26  0915    54034   33300      0    1.73e+00    0    1.21e+00
2006 10 26  0920    54034   33600      0    1.71e+00    0    1.20e+00
2006 10 26  0925    54034   33900      0    1.71e+00    0    1.20e+00
2006 10 26  0930    54034   34200      0    1.72e+00    0    1.20e+00
2006 10 26  0935    54034   34500      0    1.69e+00    0    1.18e+00
2006 10 26  0940    54034   34800      0    1.71e+00    0    1.18e+00
2006 10 26  0945    54034   35100      0    1.69e+00    0    1.18e+00
2006 10 26  0950    54034   35400      0    1.68e+00    0    1.17e+00
2006 10 26  0955    54034   35700      0    1.71e+00    0    1.21e+00
2006 10 26  1000    54034   36000      0    1.70e+00    0    1.19e+00
2006 10 26  1005    54034   36300      0    1.71e+00    0    1.20e+00
2006 10 26  1010    54034   36600      0    1.73e+00    0    1.21e+00
2006 10 26  1015    54034   36900      0    1.72e+00    0    1.20e+00
2006 10 26  1020    54034   37200      0    1.70e+00    0    1.19e+00
2006 10 26  1025    54034   37500      0    1.70e+00    0    1.18e+00
2006 10 26  1030    54034   37800      0    1.71e+00    0    1.20e+00
2006 10 26  1035    54034   38100      0    1.68e+00    0    1.19e+00
2006 10 26  1040    54034   38400      0    1.71e+00    0    1.21e+00
2006 10 26  1045    54034   38700      0    1.72e+00    0    1.21e+00
2006 10 26  1050    54034   39000      0    1.69e+00    0    1.18e+00
2006 10 26  1055    54034   39300      0    1.74e+00    0    1.21e+00
2006 10 26  1100    54034   39600      0    1.66e+00    0    1.16e+00
2006 10 26  1105    54034   39900      0    1.70e+00    0    1.19e+00
2006 10 26  1110    54034   40200      0    1.70e+00    0    1.19e+00
2006 10 26  1115    54034   40500      0    1.69e+00    0    1.18e+00
2006 10 26  1120    54034   40800      0    1.69e+00    0    1.19e+00
2006 10 26  1125    54034   41100      0    1.72e+00    0    1.22e+00
2006 10 26  1130    54034   41400      0    1.71e+00    0    1.20e+00
2006 10 26  1135    54034   41700      0    1.66e+00    0    1.15e+00
2006 10 26  1140    54034   42000      0    1.71e+00    0    1.20e+00
2006 10 26  1145    54034   42300      0    1.71e+00    0    1.21e+00
2006 10 26  1150    54034   42600      0    1.69e+00    0    1.20e+00
2006 10 26  1155    54034   42900      0    1.69e+00    0    1.19e+00
2006 10 26  1200    54034   43200      0    1.70e+00    0    1.20e+00
2006 10 26  1205    54034   43500      0    1.72e+00    0    1.20e+00
2006 10 26  1210    54034   43800      0    1.74e+00    0    1.23e+00
2006 10 26  1215    54034   44100      0    1.67e+00    0    1.18e+00
2006 10 26  1220    54034   44400      0    1.68e+00    0    1.17e+00
2006 10 26  1225    54034   44700      0    1.71e+00    0    1.21e+00
2006 10 26  1230    54034   45000      0    1.72e+00    0    1.21e+00
2006 10 26  1235    54034   45300      0    1.73e+00    0    1.21e+00
2006 10 26  1240    54034   45600      0    1.71e+00    0    1.20e+00
2006 10 26  1245    54034   45900      0    1.72e+00    0    1.21e+00
2006 10 26  1250    54034   46200      0    1.67e+00    0    1.17e+00
2006 10 26  1255    54034   46500      0    1.68e+00    0    1.17e+00
2006 10 26  1300    54034   46800      0    1.75e+00    0    1.23e+00
2006 10 26  1305    54034   47100      0    1.70e+00    0    1.19e+00
2006 10 26  1310    54034   47400      0    1.69e+00    0    1.19e+00
2006 10 26  1315    54034   47700      0    1.75e+00    0    1.22e+00
2006 10 26  1320    54034   48000      0    1.71e+00    0    1.20e+00
2006 10 26  1325    54034   48300      0    1.69e+00    0    1.19e+00
2006 10 26  1330    54034   48600      0    1.68e+00    0    1.18e+00
2006 10 26  1335    54034   48900      0    1.72e+00    0    1.21e+00
2006 10 26  1340    54034   49200      0    1.68e+00    0    1.18e+00
2006 10 26  1345    54034   49500      0    1.69e+00    0    1.19e+00
2006 10 26  1350    54034   49800      0    1.71e+00    0    1.21e+00
2006 10 26  1355    54034   50100      0    1.71e+00    0    1.20e+00
2006 10 26  1400    54034   50400      0    1.71e+00    0    1.19e+00
2006 10 26  1405    54034   50700      0    1.69e+00    0    1.18e+00
2006 10 26  1410    54034   51000      0    1.69e+00    0    1.19e+00
2006 10 26  1415    54034   51300      0    1.67e+00    0    1.17e+00
2006 10 26  1420    54034   51600      0    1.70e+00    0    1.18e+00
2006 10 26  1425    54034   51900      0    1.72e+00    0    1.20e+00
2006 10 26  1430    54034   52200      0    1.69e+00    0    1.19e+00
2006 10 26  1435    54034   52500      0    1.69e+00    0    1.17e+00
2006 10 26  1440    54034   52800      0    1.73e+00    0    1.20e+00
2006 10 26  1445    54034   53100      0    1.71e+00    0    1.21e+00
2006 10 26  1450    54034   53400      0    1.71e+00    0    1.20e+00
2006 10 26  1455    54034   53700      0    1.74e+00    0    1.23e+00
2006 10 26  1500    54034   54000      0    1.72e+00    0    1.20e+00
2006 10 26  1505    54034   54300      0    1.72e+00    0    1.20e+00
2006 10 26  1510    54034   54600      0    1.72e+00    0    1.21e+00
2006 10 26  1515    54034   54900      0    1.66e+00    0    1.16e+00
2006 10 26  1520    54034   55200      0    1.70e+00    0    1.20e+00
2006 10 26  1525    54034   55500      0    1.71e+00    0    1.19e+00
2006 10 26  1530    54034   55800      0    1.73e+00    0    1.21e+00
2006 10 26  1535    54034   56100      0    1.72e+00    0    1.20e+00
2006 10 26  1540    54034   56400      0    1.67e+00    0    1.17e+00
2006 10 26  1545    54034   56700      0    1.71e+00    0    1.21e+00
2006 10 26  1550    54034   57000      0    1.70e+00    0    1.19e+00
2006 10 26  1555    54034   57300      0    1.71e+00    0    1.19e+00
2006 10 26  1600    54034   57600      0    1.70e+00    0    1.19e+00
2006 10 26  1605    54034   57900      0    1.68e+00    0    1.17e+00
2006 10 26  1610    54034   58200      0    1.71e+00    0    1.20e+00
2006 10 26  1615    54034   58500      0    1.70e+00    0    1.19e+00
2006 10 26  1620    54034   58800      0    1.72e+00    0    1.21e+00
2006 10 26  1625    54034   59100      0    1.71e+00    0    1.19e+00
2006 10 26  1630    54034   59400      0    1.70e+00    0    1.19e+00
2006 10 26  1635    54034   59700      0    1.68e+00    0    1.18e+00
2006 10 26  1640    54034   60000      0    1.69e+00    0    1.19e+00
2006 10 26  1645    54034   60300      0    1.72e+00    0    1.22e+00
2006 10 26  1650    54034   60600      0    1.72e+00    0    1.21e+00
2006 10 26  1655    54034   60900      0    1.73e+00    0    1.21e+00
2006 10 26  1700    54034   61200      0    1.68e+00    0    1.17e+00
2006 10 26  1705    54034   61500      0    1.68e+00    0    1.18e+00
2006 10 26  1710    54034   61800      0    1.75e+00    0    1.22e+00
2006 10 26  1715    54034   62100      0    1.72e+00    0    1.20e+00
2006 10 26  1720    54034   62400      0    1.71e+00    0    1.20e+00
2006 10 26  1725    54034   62700      0    1.72e+00    0    1.21e+00
2006 10 26  1730    54034   63000      0    1.75e+00    0    1.22e+00
2006 10 26  1735    54034   63300      0    1.74e+00    0    1.22e+00
2006 10 26  1740    54034   63600      0    1.71e+00    0    1.20e+00
2006 10 26  1745    54034   63900      0    1.70e+00    0    1.19e+00
2006 10 26  1750    54034   64200      0    1.71e+00    0    1.19e+00
2006 10 26  1755    54034   64500      0    1.72e+00    0    1.21e+00
2006 10 26  1800    54034   64800      0    1.70e+00    0    1.19e+00
2006 10 26  1805    54034   65100      0    1.69e+00    0    1.19e+00
2006 10 26  1810    54034   65400      0    1.74e+00    0    1.22e+00
2006 10 26  1815    54034   65700      0    1.69e+00    0    1.19e+00
2006 10 26  1820    54034   66000      0    1.71e+00    0    1.21e+00
2006 10 26  1825    54034   66300      0    1.72e+00    0    1.20e+00
2006 10 26  1830    54034   66600      0    1.73e+00    0    1.21e+00
2006 10 26  1835    54034   66900      0    1.75e+00    0    1.24e+00
2006 10 26  1840    54034   67200      0    1.68e+00    0    1.17e+00
2006 10 26  1845    54034   67500      0    1.72e+00    0    1.22e+00
2006 10 26  1850    54034   67800      0    1.74e+00    0    1.22e+00
2006 10 26  1855    54034   68100      0    1.73e+00    0    1.22e+00
2006 10 26  1900    54034   68400      0    1.71e+00    0    1.20e+00
2006 10 26  1905    54034   68700      0    1.66e+00    0    1.16e+00
2006 10 26  1910    54034   69000      0    1.71e+00    0    1.19e+00
2006 10 26  1915    54034   69300      0    1.70e+00    0    1.19e+00
2006 10 26  1920    54034   69600      0    1.75e+00    0    1.23e+00
2006 10 26  1925    54034   69900      0    1.76e+00    0    1.23e+00
2006 10 26  1930    54034   70200      0    1.68e+00    0    1.17e+00
2006 10 26  1935    54034   70500      0    1.75e+00    0    1.21e+00
2006 10 26  1940    54034   70800      0    1.73e+00    0    1.21e+00
2006 10 26  1945    54034   71100      0    1.73e+00    0    1.21e+00
2006 10 26  1950    54034   71400      0    1.71e+00    0    1.20e+00
2006 10 26  1955    54034   71700      0    1.72e+00    0    1.20e+00
2006 10 26  2000    54034   72000      0    1.70e+00    0    1.19e+00
2006 10 26  2005    54034   72300      0    1.72e+00    0    1.21e+00
2006 10 26  2010    54034   72600      0    1.63e+00    0    1.15e+00
2006 10 26  2015    54034   72900      0    1.73e+00    0    1.21e+00
2006 10 26  2020    54034   73200      0    1.71e+00    0    1.19e+00
2006 10 26  2025    54034   73500      0    1.72e+00    0    1.20e+00
2006 10 26  2030    54034   73800      0    1.71e+00    0    1.19e+00
2006 10 26  2035    54034   74100      0    1.74e+00    0    1.21e+00
2006 10 26  2040    54034   74400      0    1.75e+00    0    1.23e+00
2006 10 26  2045    54034   74700      0    1.71e+00    0    1.20e+00
2006 10 26  2050    54034   75000      0    1.74e+00    0    1.21e+00
2006 10 26  2055    54034   75300      0    1.69e+00    0    1.19e+00
2006 10 26  2100    54034   75600      0    1.73e+00    0    1.20e+00
2006 10 26  2105    54034   75900      0    1.72e+00    0    1.22e+00
2006 10 26  2110    54034   76200      0    1.70e+00    0    1.19e+00
2006 10 26  2115    54034   76500      0    1.70e+00    0    1.19e+00
2006 10 26  2120    54034   76800      9   -1.00e+05    9   -1.00e+05
2006 10 26  2125    54034   77100      9   -1.00e+05    9   -1.00e+05
2006 10 26  2130    54034   77400      9   -1.00e+05    9   -1.00e+05
2006 10 26  2135    54034   77700      9   -1.00e+05    9   -1.00e+05
2006 10 26  2140    54034   78000      9   -1.00e+05    9   -1.00e+05
2006 10 26  2145    54034   78300      9   -1.00e+05    9   -1.00e+05
2006 10 26  2150    54034   78600      9   -1.00e+05    9   -1.00e+05
2006 10 26  2155    54034   78900      9   -1.00e+05    9   -1.00e+05
2006 10 26  2200    54034   79200      0    1.68e+00    0    1.17e+00
2006 10 26  2205    54034   79500      0    1.65e+00    0    1.15e+00
2006 10 26  2210    54034   79800      0    1.70e+00    0    1.19e+00
2006 10 26  2215    54034   80100      0    1.73e+00    0    1.21e+00
2006 10 26  2220    54034   80400      0    1.68e+00    0    1.17e+00
2006 10 26  2225    54034   80700      0    1.73e+00    0    1.21e+00
2006 10 26  2230    54034   81000      0    1.73e+00    0    1.22e+00
2006 10 26  2235    54034   81300      0    1.75e+00    0    1.23e+00
2006 10 26  2240    54034   81600      0    1.69e+00    0    1.18e+00
2006 10 26  2245    54034   81900      0    1.71e+00    0    1.20e+00
2006 10 26  2250    54034   82200      0    1.74e+00    0    1.21e+00
2006 10 26  2255    54034   82500      0    1.69e+00    0    1.18e+00
2006 10 26  2300    54034   82800      0    1.75e+00    0    1.23e+00
2006 10 26  2305    54034   83100      0    1.68e+00    0    1.17e+00
2006 10 26  2310    54034   83400      0    1.70e+00    0    1.19e+00
2006 10 26  2315    54034   83700      0    1.71e+00    0    1.19e+00
2006 10 26  2320    54034   84000      0    1.72e+00    0    1.20e+00
2006 10 26  2325    54034   84300      0    1.71e+00    0    1.20e+00
2006 10 26  2330    54034   84600      0    1.73e+00    0    1.21e+00
2006 10 26  2335    54034   84900      0    1.69e+00    0    1.19e+00
2006 10 26  2340    54034   85200      0    1.67e+00    0    1.18e+00
2006 10 26  2345    54034   85500      0    1.71e+00    0    1.20e+00
2006 10 26  2350    54034   85800      0    1.71e+00    0    1.20e+00
2006 10 26  2355    54034   86100      0    1.72e+00    0    1.20e+00
