:Data_list: 20060210_ace_sis_5m.txt
:Created: 2006 Feb 11 0011 UT
# Prepared by the U.S. Dept. of Commerce, NOAA, Space Environment Center.
# Please send comments and suggestions to SEC.Webmaster@noaa.gov 
# 
# Units: proton flux p/cs2-sec-ster
# Status(S): 0 = nominal data, 1 to 8 = bad data record, 9 = no data
# Missing data values: -1.00e+05
# Source: ACE Satellite - Solar Isotope Spectrometer
#
# 5-minute averaged Real-time Integral Flux of High-energy Solar Protons
# 
#                 Modified Seconds
# UT Date   Time   Julian  of the      ---- Integral Proton Flux ----
# YR MO DA  HHMM     Day     Day       S    > 10 MeV    S    > 30 MeV
#--------------------------------------------------------------------
2006 02 10  0000    53776       0      0    1.50e+00    0    1.05e+00
2006 02 10  0005    53776     300      0    1.49e+00    0    1.04e+00
2006 02 10  0010    53776     600      0    1.48e+00    0    1.04e+00
2006 02 10  0015    53776     900      0    1.52e+00    0    1.07e+00
2006 02 10  0020    53776    1200      0    1.47e+00    0    1.03e+00
2006 02 10  0025    53776    1500      0    1.50e+00    0    1.06e+00
2006 02 10  0030    53776    1800      0    1.47e+00    0    1.04e+00
2006 02 10  0035    53776    2100      0    1.45e+00    0    1.02e+00
2006 02 10  0040    53776    2400      0    1.51e+00    0    1.06e+00
2006 02 10  0045    53776    2700      0    1.50e+00    0    1.06e+00
2006 02 10  0050    53776    3000      0    1.48e+00    0    1.03e+00
2006 02 10  0055    53776    3300      0    1.42e+00    0    1.00e+00
2006 02 10  0100    53776    3600      0    1.44e+00    0    1.01e+00
2006 02 10  0105    53776    3900      0    1.46e+00    0    1.03e+00
2006 02 10  0110    53776    4200      0    1.48e+00    0    1.03e+00
2006 02 10  0115    53776    4500      0    1.48e+00    0    1.03e+00
2006 02 10  0120    53776    4800      0    1.46e+00    0    1.03e+00
2006 02 10  0125    53776    5100      0    1.48e+00    0    1.04e+00
2006 02 10  0130    53776    5400      0    1.47e+00    0    1.03e+00
2006 02 10  0135    53776    5700      0    1.46e+00    0    1.02e+00
2006 02 10  0140    53776    6000      0    1.48e+00    0    1.04e+00
2006 02 10  0145    53776    6300      0    1.46e+00    0    1.02e+00
2006 02 10  0150    53776    6600      0    1.47e+00    0    1.02e+00
2006 02 10  0155    53776    6900      0    1.48e+00    0    1.03e+00
2006 02 10  0200    53776    7200      0    1.40e+00    0    9.83e-01
2006 02 10  0205    53776    7500      0    1.43e+00    0    9.93e-01
2006 02 10  0210    53776    7800      0    1.44e+00    0    1.02e+00
2006 02 10  0215    53776    8100      0    1.45e+00    0    1.01e+00
2006 02 10  0220    53776    8400      0    1.47e+00    0    1.02e+00
2006 02 10  0225    53776    8700      0    1.47e+00    0    1.04e+00
2006 02 10  0230    53776    9000      0    1.45e+00    0    1.02e+00
2006 02 10  0235    53776    9300      0    1.47e+00    0    1.04e+00
2006 02 10  0240    53776    9600      0    1.41e+00    0    9.78e-01
2006 02 10  0245    53776    9900      0    1.48e+00    0    1.04e+00
2006 02 10  0250    53776   10200      0    1.46e+00    0    1.03e+00
2006 02 10  0255    53776   10500      0    1.47e+00    0    1.03e+00
2006 02 10  0300    53776   10800      0    1.47e+00    0    1.03e+00
2006 02 10  0305    53776   11100      0    1.44e+00    0    1.01e+00
2006 02 10  0310    53776   11400      0    1.47e+00    0    1.03e+00
2006 02 10  0315    53776   11700      0    1.46e+00    0    1.02e+00
2006 02 10  0320    53776   12000      0    1.44e+00    0    1.01e+00
2006 02 10  0325    53776   12300      0    1.44e+00    0    1.00e+00
2006 02 10  0330    53776   12600      0    1.47e+00    0    1.04e+00
2006 02 10  0335    53776   12900      0    1.46e+00    0    1.03e+00
2006 02 10  0340    53776   13200      0    1.48e+00    0    1.04e+00
2006 02 10  0345    53776   13500      0    1.47e+00    0    1.04e+00
2006 02 10  0350    53776   13800      0    1.48e+00    0    1.03e+00
2006 02 10  0355    53776   14100      0    1.48e+00    0    1.04e+00
2006 02 10  0400    53776   14400      0    1.47e+00    0    1.05e+00
2006 02 10  0405    53776   14700      0    1.51e+00    0    1.07e+00
2006 02 10  0410    53776   15000      0    1.48e+00    0    1.03e+00
2006 02 10  0415    53776   15300      0    1.46e+00    0    1.02e+00
2006 02 10  0420    53776   15600      0    1.45e+00    0    1.02e+00
2006 02 10  0425    53776   15900      0    1.51e+00    0    1.05e+00
2006 02 10  0430    53776   16200      0    1.45e+00    0    1.02e+00
2006 02 10  0435    53776   16500      0    1.46e+00    0    1.03e+00
2006 02 10  0440    53776   16800      0    1.48e+00    0    1.04e+00
2006 02 10  0445    53776   17100      0    1.48e+00    0    1.05e+00
2006 02 10  0450    53776   17400      0    1.46e+00    0    1.02e+00
2006 02 10  0455    53776   17700      0    1.48e+00    0    1.04e+00
2006 02 10  0500    53776   18000      0    1.49e+00    0    1.05e+00
2006 02 10  0505    53776   18300      0    1.46e+00    0    1.03e+00
2006 02 10  0510    53776   18600      0    1.42e+00    0    9.97e-01
2006 02 10  0515    53776   18900      0    1.50e+00    0    1.06e+00
2006 02 10  0520    53776   19200      0    1.39e+00    0    9.80e-01
2006 02 10  0525    53776   19500      0    1.45e+00    0    1.02e+00
2006 02 10  0530    53776   19800      0    1.44e+00    0    1.01e+00
2006 02 10  0535    53776   20100      0    1.48e+00    0    1.04e+00
2006 02 10  0540    53776   20400      0    1.46e+00    0    1.03e+00
2006 02 10  0545    53776   20700      0    1.44e+00    0    1.01e+00
2006 02 10  0550    53776   21000      0    1.45e+00    0    1.02e+00
2006 02 10  0555    53776   21300      0    1.48e+00    0    1.04e+00
2006 02 10  0600    53776   21600      0    1.47e+00    0    1.04e+00
2006 02 10  0605    53776   21900      0    1.47e+00    0    1.03e+00
2006 02 10  0610    53776   22200      0    1.43e+00    0    1.00e+00
2006 02 10  0615    53776   22500      0    1.46e+00    0    1.03e+00
2006 02 10  0620    53776   22800      0    1.48e+00    0    1.05e+00
2006 02 10  0625    53776   23100      0    1.46e+00    0    1.02e+00
2006 02 10  0630    53776   23400      0    1.49e+00    0    1.05e+00
2006 02 10  0635    53776   23700      0    1.43e+00    0    1.00e+00
2006 02 10  0640    53776   24000      0    1.45e+00    0    1.02e+00
2006 02 10  0645    53776   24300      0    1.45e+00    0    1.02e+00
2006 02 10  0650    53776   24600      0    1.48e+00    0    1.04e+00
2006 02 10  0655    53776   24900      0    1.46e+00    0    1.02e+00
2006 02 10  0700    53776   25200      0    1.50e+00    0    1.06e+00
2006 02 10  0705    53776   25500      0    1.48e+00    0    1.03e+00
2006 02 10  0710    53776   25800      0    1.47e+00    0    1.04e+00
2006 02 10  0715    53776   26100      0    1.44e+00    0    9.96e-01
2006 02 10  0720    53776   26400      0    1.47e+00    0    1.04e+00
2006 02 10  0725    53776   26700      0    1.47e+00    0    1.03e+00
2006 02 10  0730    53776   27000      0    1.46e+00    0    1.02e+00
2006 02 10  0735    53776   27300      0    1.46e+00    0    1.02e+00
2006 02 10  0740    53776   27600      0    1.45e+00    0    1.03e+00
2006 02 10  0745    53776   27900      0    1.45e+00    0    1.02e+00
2006 02 10  0750    53776   28200      0    1.43e+00    0    9.99e-01
2006 02 10  0755    53776   28500      0    1.46e+00    0    1.02e+00
2006 02 10  0800    53776   28800      0    1.46e+00    0    1.02e+00
2006 02 10  0805    53776   29100      0    1.47e+00    0    1.02e+00
2006 02 10  0810    53776   29400      0    1.49e+00    0    1.06e+00
2006 02 10  0815    53776   29700      0    1.46e+00    0    1.02e+00
2006 02 10  0820    53776   30000      0    1.47e+00    0    1.04e+00
2006 02 10  0825    53776   30300      0    1.46e+00    0    1.02e+00
2006 02 10  0830    53776   30600      0    1.48e+00    0    1.04e+00
2006 02 10  0835    53776   30900      0    1.47e+00    0    1.04e+00
2006 02 10  0840    53776   31200      0    1.47e+00    0    1.03e+00
2006 02 10  0845    53776   31500      0    1.45e+00    0    1.02e+00
2006 02 10  0850    53776   31800      0    1.44e+00    0    1.00e+00
2006 02 10  0855    53776   32100      0    1.49e+00    0    1.05e+00
2006 02 10  0900    53776   32400      0    1.49e+00    0    1.05e+00
2006 02 10  0905    53776   32700      0    1.46e+00    0    1.02e+00
2006 02 10  0910    53776   33000      0    1.45e+00    0    1.01e+00
2006 02 10  0915    53776   33300      0    1.47e+00    0    1.03e+00
2006 02 10  0920    53776   33600      0    1.45e+00    0    1.02e+00
2006 02 10  0925    53776   33900      0    1.46e+00    0    1.03e+00
2006 02 10  0930    53776   34200      0    1.49e+00    0    1.05e+00
2006 02 10  0935    53776   34500      0    1.44e+00    0    1.01e+00
2006 02 10  0940    53776   34800      0    1.46e+00    0    1.03e+00
2006 02 10  0945    53776   35100      0    1.46e+00    0    1.03e+00
2006 02 10  0950    53776   35400      0    1.47e+00    0    1.03e+00
2006 02 10  0955    53776   35700      0    1.46e+00    0    1.04e+00
2006 02 10  1000    53776   36000      0    1.46e+00    0    1.02e+00
2006 02 10  1005    53776   36300      0    1.46e+00    0    1.02e+00
2006 02 10  1010    53776   36600      0    1.43e+00    0    1.01e+00
2006 02 10  1015    53776   36900      0    1.47e+00    0    1.03e+00
2006 02 10  1020    53776   37200      0    1.48e+00    0    1.04e+00
2006 02 10  1025    53776   37500      0    1.47e+00    0    1.04e+00
2006 02 10  1030    53776   37800      0    1.44e+00    0    1.02e+00
2006 02 10  1035    53776   38100      0    1.45e+00    0    1.02e+00
2006 02 10  1040    53776   38400      0    1.47e+00    0    1.03e+00
2006 02 10  1045    53776   38700      0    1.47e+00    0    1.04e+00
2006 02 10  1050    53776   39000      0    1.42e+00    0    9.97e-01
2006 02 10  1055    53776   39300      0    1.45e+00    0    1.02e+00
2006 02 10  1100    53776   39600      0    1.46e+00    0    1.02e+00
2006 02 10  1105    53776   39900      0    1.42e+00    0    9.92e-01
2006 02 10  1110    53776   40200      0    1.47e+00    0    1.03e+00
2006 02 10  1115    53776   40500      0    1.47e+00    0    1.03e+00
2006 02 10  1120    53776   40800      0    1.47e+00    0    1.02e+00
2006 02 10  1125    53776   41100      0    1.48e+00    0    1.04e+00
2006 02 10  1130    53776   41400      0    1.46e+00    0    1.03e+00
2006 02 10  1135    53776   41700      0    1.45e+00    0    1.01e+00
2006 02 10  1140    53776   42000      0    1.43e+00    0    9.99e-01
2006 02 10  1145    53776   42300      0    1.47e+00    0    1.04e+00
2006 02 10  1150    53776   42600      0    1.43e+00    0    9.91e-01
2006 02 10  1155    53776   42900      0    1.45e+00    0    1.01e+00
2006 02 10  1200    53776   43200      0    1.45e+00    0    1.02e+00
2006 02 10  1205    53776   43500      0    1.47e+00    0    1.04e+00
2006 02 10  1210    53776   43800      0    1.47e+00    0    1.04e+00
2006 02 10  1215    53776   44100      0    1.47e+00    0    1.04e+00
2006 02 10  1220    53776   44400      0    1.42e+00    0    1.00e+00
2006 02 10  1225    53776   44700      0    1.47e+00    0    1.04e+00
2006 02 10  1230    53776   45000      0    1.45e+00    0    1.02e+00
2006 02 10  1235    53776   45300      0    1.46e+00    0    1.03e+00
2006 02 10  1240    53776   45600      0    1.45e+00    0    1.02e+00
2006 02 10  1245    53776   45900      0    1.45e+00    0    1.03e+00
2006 02 10  1250    53776   46200      0    1.44e+00    0    1.01e+00
2006 02 10  1255    53776   46500      0    1.43e+00    0    9.99e-01
2006 02 10  1300    53776   46800      0    1.43e+00    0    1.01e+00
2006 02 10  1305    53776   47100      0    1.50e+00    0    1.06e+00
2006 02 10  1310    53776   47400      0    1.43e+00    0    1.00e+00
2006 02 10  1315    53776   47700      0    1.47e+00    0    1.03e+00
2006 02 10  1320    53776   48000      0    1.44e+00    0    1.01e+00
2006 02 10  1325    53776   48300      0    1.44e+00    0    1.01e+00
2006 02 10  1330    53776   48600      0    1.46e+00    0    1.03e+00
2006 02 10  1335    53776   48900      0    1.50e+00    0    1.05e+00
2006 02 10  1340    53776   49200      0    1.46e+00    0    1.03e+00
2006 02 10  1345    53776   49500      0    1.40e+00    0    9.82e-01
2006 02 10  1350    53776   49800      0    1.47e+00    0    1.03e+00
2006 02 10  1355    53776   50100      0    1.43e+00    0    1.01e+00
2006 02 10  1400    53776   50400      0    1.44e+00    0    1.01e+00
2006 02 10  1405    53776   50700      0    1.49e+00    0    1.05e+00
2006 02 10  1410    53776   51000      0    1.50e+00    0    1.07e+00
2006 02 10  1415    53776   51300      0    1.48e+00    0    1.05e+00
2006 02 10  1420    53776   51600      0    1.48e+00    0    1.03e+00
2006 02 10  1425    53776   51900      0    1.50e+00    0    1.06e+00
2006 02 10  1430    53776   52200      0    1.46e+00    0    1.03e+00
2006 02 10  1435    53776   52500      0    1.49e+00    0    1.05e+00
2006 02 10  1440    53776   52800      0    1.47e+00    0    1.03e+00
2006 02 10  1445    53776   53100      0    1.47e+00    0    1.02e+00
2006 02 10  1450    53776   53400      0    1.48e+00    0    1.03e+00
2006 02 10  1455    53776   53700      0    1.48e+00    0    1.04e+00
2006 02 10  1500    53776   54000      0    1.49e+00    0    1.05e+00
2006 02 10  1505    53776   54300      0    1.49e+00    0    1.05e+00
2006 02 10  1510    53776   54600      0    1.46e+00    0    1.01e+00
2006 02 10  1515    53776   54900      0    1.48e+00    0    1.05e+00
2006 02 10  1520    53776   55200      0    1.48e+00    0    1.04e+00
2006 02 10  1525    53776   55500      0    1.47e+00    0    1.04e+00
2006 02 10  1530    53776   55800      0    1.49e+00    0    1.05e+00
2006 02 10  1535    53776   56100      0    1.45e+00    0    1.01e+00
2006 02 10  1540    53776   56400      0    1.44e+00    0    1.01e+00
2006 02 10  1545    53776   56700      0    1.50e+00    0    1.05e+00
2006 02 10  1550    53776   57000      0    1.44e+00    0    1.01e+00
2006 02 10  1555    53776   57300      0    1.46e+00    0    1.03e+00
2006 02 10  1600    53776   57600      0    1.46e+00    0    1.02e+00
2006 02 10  1605    53776   57900      0    1.47e+00    0    1.03e+00
2006 02 10  1610    53776   58200      0    1.49e+00    0    1.05e+00
2006 02 10  1615    53776   58500      0    1.46e+00    0    1.03e+00
2006 02 10  1620    53776   58800      0    1.45e+00    0    1.00e+00
2006 02 10  1625    53776   59100      0    1.45e+00    0    1.01e+00
2006 02 10  1630    53776   59400      0    1.48e+00    0    1.04e+00
2006 02 10  1635    53776   59700      0    1.50e+00    0    1.07e+00
2006 02 10  1640    53776   60000      0    1.49e+00    0    1.06e+00
2006 02 10  1645    53776   60300      0    1.47e+00    0    1.02e+00
2006 02 10  1650    53776   60600      0    1.45e+00    0    1.02e+00
2006 02 10  1655    53776   60900      0    1.45e+00    0    1.02e+00
2006 02 10  1700    53776   61200      0    1.47e+00    0    1.04e+00
2006 02 10  1705    53776   61500      0    1.50e+00    0    1.06e+00
2006 02 10  1710    53776   61800      0    1.48e+00    0    1.05e+00
2006 02 10  1715    53776   62100      0    1.49e+00    0    1.05e+00
2006 02 10  1720    53776   62400      0    1.47e+00    0    1.05e+00
2006 02 10  1725    53776   62700      0    1.46e+00    0    1.02e+00
2006 02 10  1730    53776   63000      0    1.50e+00    0    1.05e+00
2006 02 10  1735    53776   63300      0    1.45e+00    0    1.02e+00
2006 02 10  1740    53776   63600      0    1.48e+00    0    1.03e+00
2006 02 10  1745    53776   63900      0    1.47e+00    0    1.03e+00
2006 02 10  1750    53776   64200      0    1.50e+00    0    1.05e+00
2006 02 10  1755    53776   64500      0    1.47e+00    0    1.03e+00
2006 02 10  1800    53776   64800      0    1.47e+00    0    1.04e+00
2006 02 10  1805    53776   65100      0    1.44e+00    0    1.01e+00
2006 02 10  1810    53776   65400      0    1.44e+00    0    1.01e+00
2006 02 10  1815    53776   65700      0    1.45e+00    0    1.02e+00
2006 02 10  1820    53776   66000      0    1.45e+00    0    1.02e+00
2006 02 10  1825    53776   66300      0    1.45e+00    0    1.02e+00
2006 02 10  1830    53776   66600      0    1.46e+00    0    1.02e+00
2006 02 10  1835    53776   66900      0    1.47e+00    0    1.06e+00
2006 02 10  1840    53776   67200      0    1.49e+00    0    1.06e+00
2006 02 10  1845    53776   67500      0    1.45e+00    0    1.01e+00
2006 02 10  1850    53776   67800      0    1.49e+00    0    1.04e+00
2006 02 10  1855    53776   68100      0    1.45e+00    0    1.02e+00
2006 02 10  1900    53776   68400      0    1.44e+00    0    1.01e+00
2006 02 10  1905    53776   68700      0    1.47e+00    0    1.03e+00
2006 02 10  1910    53776   69000      0    1.45e+00    0    1.02e+00
2006 02 10  1915    53776   69300      0    1.46e+00    0    1.03e+00
2006 02 10  1920    53776   69600      0    1.47e+00    0    1.02e+00
2006 02 10  1925    53776   69900      0    1.44e+00    0    1.02e+00
2006 02 10  1930    53776   70200      0    1.45e+00    0    1.01e+00
2006 02 10  1935    53776   70500      0    1.47e+00    0    1.03e+00
2006 02 10  1940    53776   70800      0    1.47e+00    0    1.03e+00
2006 02 10  1945    53776   71100      0    1.47e+00    0    1.03e+00
2006 02 10  1950    53776   71400      0    1.49e+00    0    1.06e+00
2006 02 10  1955    53776   71700      0    1.46e+00    0    1.02e+00
2006 02 10  2000    53776   72000      0    1.50e+00    0    1.07e+00
2006 02 10  2005    53776   72300      0    1.42e+00    0    9.81e-01
2006 02 10  2010    53776   72600      0    1.48e+00    0    1.04e+00
2006 02 10  2015    53776   72900      0    1.46e+00    0    1.02e+00
2006 02 10  2020    53776   73200      0    1.48e+00    0    1.04e+00
2006 02 10  2025    53776   73500      0    1.47e+00    0    1.03e+00
2006 02 10  2030    53776   73800      0    1.47e+00    0    1.02e+00
2006 02 10  2035    53776   74100      0    1.50e+00    0    1.06e+00
2006 02 10  2040    53776   74400      0    1.51e+00    0    1.06e+00
2006 02 10  2045    53776   74700      0    1.45e+00    0    1.02e+00
2006 02 10  2050    53776   75000      0    1.46e+00    0    1.04e+00
2006 02 10  2055    53776   75300      0    1.44e+00    0    1.02e+00
2006 02 10  2100    53776   75600      0    1.44e+00    0    1.02e+00
2006 02 10  2105    53776   75900      0    1.47e+00    0    1.04e+00
2006 02 10  2110    53776   76200      0    1.50e+00    0    1.06e+00
2006 02 10  2115    53776   76500      0    1.49e+00    0    1.04e+00
2006 02 10  2120    53776   76800      0    1.44e+00    0    1.00e+00
2006 02 10  2125    53776   77100      0    1.46e+00    0    1.03e+00
2006 02 10  2130    53776   77400      0    1.47e+00    0    1.04e+00
2006 02 10  2135    53776   77700      0    1.51e+00    0    1.06e+00
2006 02 10  2140    53776   78000      0    1.46e+00    0    1.03e+00
2006 02 10  2145    53776   78300      0    1.47e+00    0    1.03e+00
2006 02 10  2150    53776   78600      0    1.44e+00    0    1.01e+00
2006 02 10  2155    53776   78900      0    1.42e+00    0    9.99e-01
2006 02 10  2200    53776   79200      0    1.49e+00    0    1.04e+00
2006 02 10  2205    53776   79500      0    1.49e+00    0    1.05e+00
2006 02 10  2210    53776   79800      0    1.48e+00    0    1.04e+00
2006 02 10  2215    53776   80100      0    1.51e+00    0    1.05e+00
2006 02 10  2220    53776   80400      0    1.44e+00    0    1.00e+00
2006 02 10  2225    53776   80700      0    1.49e+00    0    1.04e+00
2006 02 10  2230    53776   81000      0    1.44e+00    0    1.01e+00
2006 02 10  2235    53776   81300      0    1.44e+00    0    1.01e+00
2006 02 10  2240    53776   81600      0    1.40e+00    0    9.81e-01
2006 02 10  2245    53776   81900      0    1.46e+00    0    1.03e+00
2006 02 10  2250    53776   82200      0    1.47e+00    0    1.02e+00
2006 02 10  2255    53776   82500      0    1.49e+00    0    1.05e+00
2006 02 10  2300    53776   82800      0    1.43e+00    0    1.00e+00
2006 02 10  2305    53776   83100      0    1.47e+00    0    1.03e+00
2006 02 10  2310    53776   83400      0    1.46e+00    0    1.02e+00
2006 02 10  2315    53776   83700      0    1.46e+00    0    1.04e+00
2006 02 10  2320    53776   84000      0    1.46e+00    0    1.02e+00
2006 02 10  2325    53776   84300      0    1.49e+00    0    1.04e+00
2006 02 10  2330    53776   84600      0    1.47e+00    0    1.03e+00
2006 02 10  2335    53776   84900      0    1.49e+00    0    1.05e+00
2006 02 10  2340    53776   85200      0    1.46e+00    0    1.03e+00
2006 02 10  2345    53776   85500      0    1.46e+00    0    1.03e+00
2006 02 10  2350    53776   85800      0    1.44e+00    0    1.01e+00
2006 02 10  2355    53776   86100      0    1.48e+00    0    1.04e+00
