:Data_list: 20061003_ace_sis_5m.txt
:Created: 2006 Oct 04 0011 UT
# Prepared by the U.S. Dept. of Commerce, NOAA, Space Environment Center.
# Please send comments and suggestions to SEC.Webmaster@noaa.gov 
# 
# Units: proton flux p/cs2-sec-ster
# Status(S): 0 = nominal data, 1 to 8 = bad data record, 9 = no data
# Missing data values: -1.00e+05
# Source: ACE Satellite - Solar Isotope Spectrometer
#
# 5-minute averaged Real-time Integral Flux of High-energy Solar Protons
# 
#                 Modified Seconds
# UT Date   Time   Julian  of the      ---- Integral Proton Flux ----
# YR MO DA  HHMM     Day     Day       S    > 10 MeV    S    > 30 MeV
#--------------------------------------------------------------------
2006 10 03  0000    54011       0      0    1.68e+00    0    1.18e+00
2006 10 03  0005    54011     300      0    1.65e+00    0    1.16e+00
2006 10 03  0010    54011     600      0    1.64e+00    0    1.16e+00
2006 10 03  0015    54011     900      0    1.65e+00    0    1.17e+00
2006 10 03  0020    54011    1200      0    1.65e+00    0    1.16e+00
2006 10 03  0025    54011    1500      0    1.62e+00    0    1.13e+00
2006 10 03  0030    54011    1800      0    1.68e+00    0    1.18e+00
2006 10 03  0035    54011    2100      0    1.66e+00    0    1.17e+00
2006 10 03  0040    54011    2400      0    1.66e+00    0    1.16e+00
2006 10 03  0045    54011    2700      0    1.65e+00    0    1.15e+00
2006 10 03  0050    54011    3000      0    1.65e+00    0    1.15e+00
2006 10 03  0055    54011    3300      0    1.63e+00    0    1.13e+00
2006 10 03  0100    54011    3600      0    1.61e+00    0    1.13e+00
2006 10 03  0105    54011    3900      0    1.65e+00    0    1.16e+00
2006 10 03  0110    54011    4200      0    1.61e+00    0    1.13e+00
2006 10 03  0115    54011    4500      0    1.65e+00    0    1.16e+00
2006 10 03  0120    54011    4800      0    1.64e+00    0    1.14e+00
2006 10 03  0125    54011    5100      0    1.65e+00    0    1.16e+00
2006 10 03  0130    54011    5400      0    1.63e+00    0    1.15e+00
2006 10 03  0135    54011    5700      0    1.64e+00    0    1.16e+00
2006 10 03  0140    54011    6000      0    1.63e+00    0    1.14e+00
2006 10 03  0145    54011    6300      0    1.66e+00    0    1.18e+00
2006 10 03  0150    54011    6600      0    1.65e+00    0    1.15e+00
2006 10 03  0155    54011    6900      0    1.66e+00    0    1.15e+00
2006 10 03  0200    54011    7200      0    1.67e+00    0    1.18e+00
2006 10 03  0205    54011    7500      0    1.68e+00    0    1.19e+00
2006 10 03  0210    54011    7800      0    1.65e+00    0    1.17e+00
2006 10 03  0215    54011    8100      0    1.65e+00    0    1.16e+00
2006 10 03  0220    54011    8400      0    1.68e+00    0    1.18e+00
2006 10 03  0225    54011    8700      0    1.67e+00    0    1.17e+00
2006 10 03  0230    54011    9000      0    1.65e+00    0    1.16e+00
2006 10 03  0235    54011    9300      0    1.67e+00    0    1.17e+00
2006 10 03  0240    54011    9600      0    1.64e+00    0    1.14e+00
2006 10 03  0245    54011    9900      0    1.66e+00    0    1.15e+00
2006 10 03  0250    54011   10200      0    1.67e+00    0    1.17e+00
2006 10 03  0255    54011   10500      0    1.67e+00    0    1.16e+00
2006 10 03  0300    54011   10800      0    1.62e+00    0    1.13e+00
2006 10 03  0305    54011   11100      0    1.65e+00    0    1.16e+00
2006 10 03  0310    54011   11400      0    1.64e+00    0    1.15e+00
2006 10 03  0315    54011   11700      0    1.64e+00    0    1.15e+00
2006 10 03  0320    54011   12000      0    1.69e+00    0    1.19e+00
2006 10 03  0325    54011   12300      0    1.67e+00    0    1.17e+00
2006 10 03  0330    54011   12600      0    1.65e+00    0    1.15e+00
2006 10 03  0335    54011   12900      0    1.65e+00    0    1.17e+00
2006 10 03  0340    54011   13200      0    1.66e+00    0    1.17e+00
2006 10 03  0345    54011   13500      0    1.63e+00    0    1.15e+00
2006 10 03  0350    54011   13800      0    1.68e+00    0    1.18e+00
2006 10 03  0355    54011   14100      0    1.64e+00    0    1.15e+00
2006 10 03  0400    54011   14400      0    1.68e+00    0    1.18e+00
2006 10 03  0405    54011   14700      0    1.64e+00    0    1.15e+00
2006 10 03  0410    54011   15000      0    1.70e+00    0    1.19e+00
2006 10 03  0415    54011   15300      0    1.66e+00    0    1.16e+00
2006 10 03  0420    54011   15600      0    1.68e+00    0    1.18e+00
2006 10 03  0425    54011   15900      0    1.66e+00    0    1.16e+00
2006 10 03  0430    54011   16200      0    1.64e+00    0    1.13e+00
2006 10 03  0435    54011   16500      0    1.68e+00    0    1.18e+00
2006 10 03  0440    54011   16800      0    1.65e+00    0    1.15e+00
2006 10 03  0445    54011   17100      0    1.66e+00    0    1.15e+00
2006 10 03  0450    54011   17400      0    1.71e+00    0    1.21e+00
2006 10 03  0455    54011   17700      0    1.64e+00    0    1.14e+00
2006 10 03  0500    54011   18000      0    1.68e+00    0    1.17e+00
2006 10 03  0505    54011   18300      0    1.65e+00    0    1.14e+00
2006 10 03  0510    54011   18600      0    1.62e+00    0    1.13e+00
2006 10 03  0515    54011   18900      0    1.68e+00    0    1.17e+00
2006 10 03  0520    54011   19200      0    1.63e+00    0    1.13e+00
2006 10 03  0525    54011   19500      0    1.67e+00    0    1.18e+00
2006 10 03  0530    54011   19800      0    1.65e+00    0    1.16e+00
2006 10 03  0535    54011   20100      0    1.66e+00    0    1.17e+00
2006 10 03  0540    54011   20400      0    1.67e+00    0    1.18e+00
2006 10 03  0545    54011   20700      0    1.67e+00    0    1.17e+00
2006 10 03  0550    54011   21000      0    1.70e+00    0    1.19e+00
2006 10 03  0555    54011   21300      0    1.65e+00    0    1.14e+00
2006 10 03  0600    54011   21600      0    1.68e+00    0    1.18e+00
2006 10 03  0605    54011   21900      0    1.67e+00    0    1.17e+00
2006 10 03  0610    54011   22200      0    1.67e+00    0    1.17e+00
2006 10 03  0615    54011   22500      0    1.66e+00    0    1.17e+00
2006 10 03  0620    54011   22800      0    1.66e+00    0    1.16e+00
2006 10 03  0625    54011   23100      0    1.68e+00    0    1.18e+00
2006 10 03  0630    54011   23400      0    1.65e+00    0    1.16e+00
2006 10 03  0635    54011   23700      0    1.71e+00    0    1.21e+00
2006 10 03  0640    54011   24000      0    1.68e+00    0    1.19e+00
2006 10 03  0645    54011   24300      0    1.64e+00    0    1.15e+00
2006 10 03  0650    54011   24600      0    1.63e+00    0    1.14e+00
2006 10 03  0655    54011   24900      0    1.66e+00    0    1.17e+00
2006 10 03  0700    54011   25200      0    1.64e+00    0    1.14e+00
2006 10 03  0705    54011   25500      0    1.64e+00    0    1.14e+00
2006 10 03  0710    54011   25800      0    1.64e+00    0    1.15e+00
2006 10 03  0715    54011   26100      0    1.69e+00    0    1.19e+00
2006 10 03  0720    54011   26400      0    1.67e+00    0    1.17e+00
2006 10 03  0725    54011   26700      0    1.65e+00    0    1.16e+00
2006 10 03  0730    54011   27000      0    1.69e+00    0    1.19e+00
2006 10 03  0735    54011   27300      0    1.65e+00    0    1.15e+00
2006 10 03  0740    54011   27600      0    1.65e+00    0    1.17e+00
2006 10 03  0745    54011   27900      0    1.69e+00    0    1.19e+00
2006 10 03  0750    54011   28200      0    1.67e+00    0    1.17e+00
2006 10 03  0755    54011   28500      0    1.66e+00    0    1.18e+00
2006 10 03  0800    54011   28800      0    1.68e+00    0    1.18e+00
2006 10 03  0805    54011   29100      0    1.65e+00    0    1.16e+00
2006 10 03  0810    54011   29400      0    1.69e+00    0    1.18e+00
2006 10 03  0815    54011   29700      0    1.65e+00    0    1.15e+00
2006 10 03  0820    54011   30000      0    1.67e+00    0    1.18e+00
2006 10 03  0825    54011   30300      0    1.69e+00    0    1.18e+00
2006 10 03  0830    54011   30600      0    1.66e+00    0    1.16e+00
2006 10 03  0835    54011   30900      0    1.65e+00    0    1.14e+00
2006 10 03  0840    54011   31200      0    1.69e+00    0    1.18e+00
2006 10 03  0845    54011   31500      0    1.62e+00    0    1.13e+00
2006 10 03  0850    54011   31800      0    1.67e+00    0    1.17e+00
2006 10 03  0855    54011   32100      0    1.64e+00    0    1.14e+00
2006 10 03  0900    54011   32400      0    1.68e+00    0    1.18e+00
2006 10 03  0905    54011   32700      0    1.66e+00    0    1.16e+00
2006 10 03  0910    54011   33000      0    1.63e+00    0    1.15e+00
2006 10 03  0915    54011   33300      0    1.65e+00    0    1.15e+00
2006 10 03  0920    54011   33600      0    1.69e+00    0    1.18e+00
2006 10 03  0925    54011   33900      0    1.70e+00    0    1.18e+00
2006 10 03  0930    54011   34200      0    1.67e+00    0    1.18e+00
2006 10 03  0935    54011   34500      0    1.63e+00    0    1.15e+00
2006 10 03  0940    54011   34800      0    1.66e+00    0    1.16e+00
2006 10 03  0945    54011   35100      0    1.65e+00    0    1.15e+00
2006 10 03  0950    54011   35400      0    1.68e+00    0    1.18e+00
2006 10 03  0955    54011   35700      0    1.64e+00    0    1.15e+00
2006 10 03  1000    54011   36000      0    1.64e+00    0    1.15e+00
2006 10 03  1005    54011   36300      0    1.66e+00    0    1.18e+00
2006 10 03  1010    54011   36600      0    1.65e+00    0    1.16e+00
2006 10 03  1015    54011   36900      0    1.64e+00    0    1.14e+00
2006 10 03  1020    54011   37200      0    1.66e+00    0    1.16e+00
2006 10 03  1025    54011   37500      0    1.67e+00    0    1.18e+00
2006 10 03  1030    54011   37800      0    1.70e+00    0    1.20e+00
2006 10 03  1035    54011   38100      0    1.66e+00    0    1.18e+00
2006 10 03  1040    54011   38400      0    1.66e+00    0    1.16e+00
2006 10 03  1045    54011   38700      0    1.65e+00    0    1.16e+00
2006 10 03  1050    54011   39000      0    1.67e+00    0    1.16e+00
2006 10 03  1055    54011   39300      0    1.65e+00    0    1.15e+00
2006 10 03  1100    54011   39600      0    1.64e+00    0    1.16e+00
2006 10 03  1105    54011   39900      0    1.67e+00    0    1.18e+00
2006 10 03  1110    54011   40200      0    1.66e+00    0    1.16e+00
2006 10 03  1115    54011   40500      0    1.68e+00    0    1.18e+00
2006 10 03  1120    54011   40800      0    1.67e+00    0    1.17e+00
2006 10 03  1125    54011   41100      0    1.66e+00    0    1.16e+00
2006 10 03  1130    54011   41400      0    1.66e+00    0    1.17e+00
2006 10 03  1135    54011   41700      0    1.67e+00    0    1.17e+00
2006 10 03  1140    54011   42000      0    1.70e+00    0    1.19e+00
2006 10 03  1145    54011   42300      0    1.68e+00    0    1.17e+00
2006 10 03  1150    54011   42600      0    1.64e+00    0    1.15e+00
2006 10 03  1155    54011   42900      0    1.67e+00    0    1.18e+00
2006 10 03  1200    54011   43200      0    1.65e+00    0    1.15e+00
2006 10 03  1205    54011   43500      0    1.67e+00    0    1.17e+00
2006 10 03  1210    54011   43800      0    1.64e+00    0    1.14e+00
2006 10 03  1215    54011   44100      0    1.65e+00    0    1.16e+00
2006 10 03  1220    54011   44400      0    1.66e+00    0    1.16e+00
2006 10 03  1225    54011   44700      0    1.65e+00    0    1.17e+00
2006 10 03  1230    54011   45000      0    1.64e+00    0    1.15e+00
2006 10 03  1235    54011   45300      0    1.65e+00    0    1.15e+00
2006 10 03  1240    54011   45600      0    1.70e+00    0    1.19e+00
2006 10 03  1245    54011   45900      0    1.66e+00    0    1.17e+00
2006 10 03  1250    54011   46200      0    1.63e+00    0    1.14e+00
2006 10 03  1255    54011   46500      0    1.66e+00    0    1.15e+00
2006 10 03  1300    54011   46800      0    1.65e+00    0    1.18e+00
2006 10 03  1305    54011   47100      0    1.65e+00    0    1.15e+00
2006 10 03  1310    54011   47400      0    1.66e+00    0    1.15e+00
2006 10 03  1315    54011   47700      0    1.66e+00    0    1.16e+00
2006 10 03  1320    54011   48000      0    1.64e+00    0    1.15e+00
2006 10 03  1325    54011   48300      0    1.69e+00    0    1.18e+00
2006 10 03  1330    54011   48600      0    1.69e+00    0    1.18e+00
2006 10 03  1335    54011   48900      0    1.66e+00    0    1.17e+00
2006 10 03  1340    54011   49200      0    1.69e+00    0    1.17e+00
2006 10 03  1345    54011   49500      0    1.66e+00    0    1.17e+00
2006 10 03  1350    54011   49800      0    1.67e+00    0    1.18e+00
2006 10 03  1355    54011   50100      0    1.65e+00    0    1.17e+00
2006 10 03  1400    54011   50400      0    1.66e+00    0    1.17e+00
2006 10 03  1405    54011   50700      0    1.66e+00    0    1.16e+00
2006 10 03  1410    54011   51000      0    1.66e+00    0    1.17e+00
2006 10 03  1415    54011   51300      0    1.69e+00    0    1.19e+00
2006 10 03  1420    54011   51600      0    1.68e+00    0    1.18e+00
2006 10 03  1425    54011   51900      0    1.66e+00    0    1.16e+00
2006 10 03  1430    54011   52200      0    1.67e+00    0    1.17e+00
2006 10 03  1435    54011   52500      0    1.68e+00    0    1.18e+00
2006 10 03  1440    54011   52800      0    1.70e+00    0    1.19e+00
2006 10 03  1445    54011   53100      0    1.69e+00    0    1.18e+00
2006 10 03  1450    54011   53400      0    1.68e+00    0    1.17e+00
2006 10 03  1455    54011   53700      0    1.69e+00    0    1.19e+00
2006 10 03  1500    54011   54000      0    1.68e+00    0    1.19e+00
2006 10 03  1505    54011   54300      0    1.62e+00    0    1.13e+00
2006 10 03  1510    54011   54600      0    1.68e+00    0    1.18e+00
2006 10 03  1515    54011   54900      0    1.68e+00    0    1.17e+00
2006 10 03  1520    54011   55200      0    1.67e+00    0    1.16e+00
2006 10 03  1525    54011   55500      0    1.64e+00    0    1.14e+00
2006 10 03  1530    54011   55800      0    1.67e+00    0    1.16e+00
2006 10 03  1535    54011   56100      0    1.67e+00    0    1.18e+00
2006 10 03  1540    54011   56400      0    1.64e+00    0    1.16e+00
2006 10 03  1545    54011   56700      0    1.69e+00    0    1.18e+00
2006 10 03  1550    54011   57000      0    1.71e+00    0    1.18e+00
2006 10 03  1555    54011   57300      0    1.65e+00    0    1.14e+00
2006 10 03  1600    54011   57600      0    1.68e+00    0    1.18e+00
2006 10 03  1605    54011   57900      0    1.67e+00    0    1.17e+00
2006 10 03  1610    54011   58200      0    1.65e+00    0    1.15e+00
2006 10 03  1615    54011   58500      0    1.67e+00    0    1.16e+00
2006 10 03  1620    54011   58800      0    1.70e+00    0    1.19e+00
2006 10 03  1625    54011   59100      0    1.68e+00    0    1.18e+00
2006 10 03  1630    54011   59400      0    1.67e+00    0    1.19e+00
2006 10 03  1635    54011   59700      0    1.68e+00    0    1.17e+00
2006 10 03  1640    54011   60000      0    1.67e+00    0    1.17e+00
2006 10 03  1645    54011   60300      0    1.69e+00    0    1.18e+00
2006 10 03  1650    54011   60600      0    1.69e+00    0    1.19e+00
2006 10 03  1655    54011   60900      0    1.67e+00    0    1.17e+00
2006 10 03  1700    54011   61200      0    1.67e+00    0    1.17e+00
2006 10 03  1705    54011   61500      0    1.67e+00    0    1.18e+00
2006 10 03  1710    54011   61800      0    1.69e+00    0    1.19e+00
2006 10 03  1715    54011   62100      0    1.66e+00    0    1.16e+00
2006 10 03  1720    54011   62400      0    1.71e+00    0    1.21e+00
2006 10 03  1725    54011   62700      0    1.66e+00    0    1.17e+00
2006 10 03  1730    54011   63000      0    1.66e+00    0    1.16e+00
2006 10 03  1735    54011   63300      0    1.68e+00    0    1.18e+00
2006 10 03  1740    54011   63600      0    1.66e+00    0    1.16e+00
2006 10 03  1745    54011   63900      0    1.68e+00    0    1.18e+00
2006 10 03  1750    54011   64200      0    1.63e+00    0    1.14e+00
2006 10 03  1755    54011   64500      0    1.67e+00    0    1.15e+00
2006 10 03  1800    54011   64800      0    1.66e+00    0    1.16e+00
2006 10 03  1805    54011   65100      0    1.67e+00    0    1.17e+00
2006 10 03  1810    54011   65400      0    1.67e+00    0    1.17e+00
2006 10 03  1815    54011   65700      0    1.64e+00    0    1.15e+00
2006 10 03  1820    54011   66000      0    1.66e+00    0    1.16e+00
2006 10 03  1825    54011   66300      0    1.68e+00    0    1.18e+00
2006 10 03  1830    54011   66600      0    1.65e+00    0    1.15e+00
2006 10 03  1835    54011   66900      0    1.68e+00    0    1.17e+00
2006 10 03  1840    54011   67200      0    1.70e+00    0    1.19e+00
2006 10 03  1845    54011   67500      0    1.67e+00    0    1.18e+00
2006 10 03  1850    54011   67800      0    1.65e+00    0    1.15e+00
2006 10 03  1855    54011   68100      0    1.69e+00    0    1.19e+00
2006 10 03  1900    54011   68400      0    1.67e+00    0    1.17e+00
2006 10 03  1905    54011   68700      0    1.67e+00    0    1.17e+00
2006 10 03  1910    54011   69000      0    1.66e+00    0    1.17e+00
2006 10 03  1915    54011   69300      0    1.64e+00    0    1.15e+00
2006 10 03  1920    54011   69600      0    1.71e+00    0    1.21e+00
2006 10 03  1925    54011   69900      0    1.69e+00    0    1.19e+00
2006 10 03  1930    54011   70200      0    1.69e+00    0    1.19e+00
2006 10 03  1935    54011   70500      0    1.72e+00    0    1.20e+00
2006 10 03  1940    54011   70800      0    1.66e+00    0    1.17e+00
2006 10 03  1945    54011   71100      0    1.69e+00    0    1.19e+00
2006 10 03  1950    54011   71400      0    1.67e+00    0    1.17e+00
2006 10 03  1955    54011   71700      0    1.66e+00    0    1.16e+00
2006 10 03  2000    54011   72000      0    1.70e+00    0    1.19e+00
2006 10 03  2005    54011   72300      0    1.68e+00    0    1.18e+00
2006 10 03  2010    54011   72600      0    1.69e+00    0    1.18e+00
2006 10 03  2015    54011   72900      0    1.66e+00    0    1.17e+00
2006 10 03  2020    54011   73200      0    1.65e+00    0    1.15e+00
2006 10 03  2025    54011   73500      0    1.69e+00    0    1.20e+00
2006 10 03  2030    54011   73800      0    1.67e+00    0    1.18e+00
2006 10 03  2035    54011   74100      0    1.66e+00    0    1.16e+00
2006 10 03  2040    54011   74400      0    1.70e+00    0    1.20e+00
2006 10 03  2045    54011   74700      0    1.70e+00    0    1.19e+00
2006 10 03  2050    54011   75000      0    1.69e+00    0    1.19e+00
2006 10 03  2055    54011   75300      0    1.69e+00    0    1.18e+00
2006 10 03  2100    54011   75600      0    1.64e+00    0    1.14e+00
2006 10 03  2105    54011   75900      0    1.67e+00    0    1.16e+00
2006 10 03  2110    54011   76200      0    1.68e+00    0    1.18e+00
2006 10 03  2115    54011   76500      0    1.67e+00    0    1.17e+00
2006 10 03  2120    54011   76800      0    1.69e+00    0    1.18e+00
2006 10 03  2125    54011   77100      0    1.64e+00    0    1.14e+00
2006 10 03  2130    54011   77400      0    1.70e+00    0    1.20e+00
2006 10 03  2135    54011   77700      0    1.65e+00    0    1.15e+00
2006 10 03  2140    54011   78000      0    1.65e+00    0    1.16e+00
2006 10 03  2145    54011   78300      0    1.65e+00    0    1.16e+00
2006 10 03  2150    54011   78600      0    1.66e+00    0    1.16e+00
2006 10 03  2155    54011   78900      9   -1.00e+05    9   -1.00e+05
2006 10 03  2200    54011   79200      9   -1.00e+05    9   -1.00e+05
2006 10 03  2205    54011   79500      9   -1.00e+05    9   -1.00e+05
2006 10 03  2210    54011   79800      9   -1.00e+05    9   -1.00e+05
2006 10 03  2215    54011   80100      9   -1.00e+05    9   -1.00e+05
2006 10 03  2220    54011   80400      9   -1.00e+05    9   -1.00e+05
2006 10 03  2225    54011   80700      9   -1.00e+05    9   -1.00e+05
2006 10 03  2230    54011   81000      0    1.73e+00    0    1.23e+00
2006 10 03  2235    54011   81300      0    1.64e+00    0    1.15e+00
2006 10 03  2240    54011   81600      0    1.72e+00    0    1.22e+00
2006 10 03  2245    54011   81900      0    1.68e+00    0    1.19e+00
2006 10 03  2250    54011   82200      0    1.67e+00    0    1.17e+00
2006 10 03  2255    54011   82500      0    1.69e+00    0    1.18e+00
2006 10 03  2300    54011   82800      0    1.70e+00    0    1.19e+00
2006 10 03  2305    54011   83100      0    1.66e+00    0    1.17e+00
2006 10 03  2310    54011   83400      0    1.64e+00    0    1.15e+00
2006 10 03  2315    54011   83700      0    1.67e+00    0    1.17e+00
2006 10 03  2320    54011   84000      0    1.64e+00    0    1.14e+00
2006 10 03  2325    54011   84300      0    1.66e+00    0    1.17e+00
2006 10 03  2330    54011   84600      0    1.67e+00    0    1.18e+00
2006 10 03  2335    54011   84900      0    1.68e+00    0    1.17e+00
2006 10 03  2340    54011   85200      0    1.64e+00    0    1.14e+00
2006 10 03  2345    54011   85500      0    1.70e+00    0    1.19e+00
2006 10 03  2350    54011   85800      0    1.66e+00    0    1.17e+00
2006 10 03  2355    54011   86100      0    1.68e+00    0    1.18e+00
