:Data_list: 20061117_ace_sis_5m.txt
:Created: 2006 Nov 18 0011 UT
# Prepared by the U.S. Dept. of Commerce, NOAA, Space Environment Center.
# Please send comments and suggestions to SEC.Webmaster@noaa.gov 
# 
# Units: proton flux p/cs2-sec-ster
# Status(S): 0 = nominal data, 1 to 8 = bad data record, 9 = no data
# Missing data values: -1.00e+05
# Source: ACE Satellite - Solar Isotope Spectrometer
#
# 5-minute averaged Real-time Integral Flux of High-energy Solar Protons
# 
#                 Modified Seconds
# UT Date   Time   Julian  of the      ---- Integral Proton Flux ----
# YR MO DA  HHMM     Day     Day       S    > 10 MeV    S    > 30 MeV
#--------------------------------------------------------------------
2006 11 17  0000    54056       0      0    1.66e+00    0    1.16e+00
2006 11 17  0005    54056     300      0    1.67e+00    0    1.17e+00
2006 11 17  0010    54056     600      0    1.66e+00    0    1.16e+00
2006 11 17  0015    54056     900      0    1.67e+00    0    1.18e+00
2006 11 17  0020    54056    1200      0    1.67e+00    0    1.17e+00
2006 11 17  0025    54056    1500      0    1.64e+00    0    1.14e+00
2006 11 17  0030    54056    1800      0    1.66e+00    0    1.16e+00
2006 11 17  0035    54056    2100      0    1.66e+00    0    1.17e+00
2006 11 17  0040    54056    2400      0    1.68e+00    0    1.18e+00
2006 11 17  0045    54056    2700      0    1.63e+00    0    1.14e+00
2006 11 17  0050    54056    3000      0    1.69e+00    0    1.18e+00
2006 11 17  0055    54056    3300      0    1.69e+00    0    1.19e+00
2006 11 17  0100    54056    3600      0    1.70e+00    0    1.20e+00
2006 11 17  0105    54056    3900      0    1.68e+00    0    1.17e+00
2006 11 17  0110    54056    4200      0    1.65e+00    0    1.15e+00
2006 11 17  0115    54056    4500      0    1.66e+00    0    1.16e+00
2006 11 17  0120    54056    4800      0    1.67e+00    0    1.16e+00
2006 11 17  0125    54056    5100      0    1.67e+00    0    1.15e+00
2006 11 17  0130    54056    5400      0    1.70e+00    0    1.18e+00
2006 11 17  0135    54056    5700      0    1.68e+00    0    1.17e+00
2006 11 17  0140    54056    6000      0    1.69e+00    0    1.19e+00
2006 11 17  0145    54056    6300      0    1.71e+00    0    1.20e+00
2006 11 17  0150    54056    6600      0    1.66e+00    0    1.16e+00
2006 11 17  0155    54056    6900      0    1.68e+00    0    1.18e+00
2006 11 17  0200    54056    7200      0    1.64e+00    0    1.14e+00
2006 11 17  0205    54056    7500      0    1.67e+00    0    1.18e+00
2006 11 17  0210    54056    7800      0    1.72e+00    0    1.23e+00
2006 11 17  0215    54056    8100      0    1.70e+00    0    1.18e+00
2006 11 17  0220    54056    8400      0    1.69e+00    0    1.19e+00
2006 11 17  0225    54056    8700      0    1.68e+00    0    1.18e+00
2006 11 17  0230    54056    9000      0    1.70e+00    0    1.17e+00
2006 11 17  0235    54056    9300      0    1.67e+00    0    1.17e+00
2006 11 17  0240    54056    9600      0    1.68e+00    0    1.18e+00
2006 11 17  0245    54056    9900      0    1.70e+00    0    1.21e+00
2006 11 17  0250    54056   10200      0    1.74e+00    0    1.22e+00
2006 11 17  0255    54056   10500      0    1.65e+00    0    1.16e+00
2006 11 17  0300    54056   10800      0    1.65e+00    0    1.16e+00
2006 11 17  0305    54056   11100      0    1.72e+00    0    1.21e+00
2006 11 17  0310    54056   11400      0    1.69e+00    0    1.17e+00
2006 11 17  0315    54056   11700      0    1.69e+00    0    1.18e+00
2006 11 17  0320    54056   12000      0    1.68e+00    0    1.18e+00
2006 11 17  0325    54056   12300      0    1.70e+00    0    1.20e+00
2006 11 17  0330    54056   12600      0    1.70e+00    0    1.19e+00
2006 11 17  0335    54056   12900      0    1.70e+00    0    1.19e+00
2006 11 17  0340    54056   13200      0    1.63e+00    0    1.15e+00
2006 11 17  0345    54056   13500      0    1.72e+00    0    1.21e+00
2006 11 17  0350    54056   13800      0    1.71e+00    0    1.19e+00
2006 11 17  0355    54056   14100      0    1.73e+00    0    1.20e+00
2006 11 17  0400    54056   14400      0    1.70e+00    0    1.19e+00
2006 11 17  0405    54056   14700      0    1.68e+00    0    1.18e+00
2006 11 17  0410    54056   15000      0    1.71e+00    0    1.20e+00
2006 11 17  0415    54056   15300      0    1.69e+00    0    1.16e+00
2006 11 17  0420    54056   15600      0    1.71e+00    0    1.20e+00
2006 11 17  0425    54056   15900      0    1.65e+00    0    1.17e+00
2006 11 17  0430    54056   16200      0    1.71e+00    0    1.20e+00
2006 11 17  0435    54056   16500      0    1.74e+00    0    1.22e+00
2006 11 17  0440    54056   16800      0    1.69e+00    0    1.18e+00
2006 11 17  0445    54056   17100      0    1.68e+00    0    1.18e+00
2006 11 17  0450    54056   17400      0    1.69e+00    0    1.19e+00
2006 11 17  0455    54056   17700      0    1.71e+00    0    1.21e+00
2006 11 17  0500    54056   18000      0    1.70e+00    0    1.19e+00
2006 11 17  0505    54056   18300      0    1.67e+00    0    1.17e+00
2006 11 17  0510    54056   18600      0    1.68e+00    0    1.17e+00
2006 11 17  0515    54056   18900      0    1.70e+00    0    1.20e+00
2006 11 17  0520    54056   19200      0    1.69e+00    0    1.18e+00
2006 11 17  0525    54056   19500      0    1.68e+00    0    1.18e+00
2006 11 17  0530    54056   19800      0    1.72e+00    0    1.20e+00
2006 11 17  0535    54056   20100      0    1.72e+00    0    1.22e+00
2006 11 17  0540    54056   20400      0    1.66e+00    0    1.16e+00
2006 11 17  0545    54056   20700      0    1.66e+00    0    1.16e+00
2006 11 17  0550    54056   21000      0    1.74e+00    0    1.22e+00
2006 11 17  0555    54056   21300      0    1.69e+00    0    1.18e+00
2006 11 17  0600    54056   21600      0    1.72e+00    0    1.21e+00
2006 11 17  0605    54056   21900      0    1.68e+00    0    1.16e+00
2006 11 17  0610    54056   22200      0    1.67e+00    0    1.17e+00
2006 11 17  0615    54056   22500      0    1.67e+00    0    1.17e+00
2006 11 17  0620    54056   22800      0    1.68e+00    0    1.17e+00
2006 11 17  0625    54056   23100      0    1.70e+00    0    1.19e+00
2006 11 17  0630    54056   23400      0    1.69e+00    0    1.19e+00
2006 11 17  0635    54056   23700      0    1.71e+00    0    1.19e+00
2006 11 17  0640    54056   24000      0    1.71e+00    0    1.19e+00
2006 11 17  0645    54056   24300      0    1.69e+00    0    1.19e+00
2006 11 17  0650    54056   24600      0    1.70e+00    0    1.20e+00
2006 11 17  0655    54056   24900      0    1.71e+00    0    1.19e+00
2006 11 17  0700    54056   25200      0    1.71e+00    0    1.19e+00
2006 11 17  0705    54056   25500      0    1.68e+00    0    1.18e+00
2006 11 17  0710    54056   25800      0    1.73e+00    0    1.21e+00
2006 11 17  0715    54056   26100      0    1.72e+00    0    1.21e+00
2006 11 17  0720    54056   26400      0    1.69e+00    0    1.18e+00
2006 11 17  0725    54056   26700      0    1.70e+00    0    1.20e+00
2006 11 17  0730    54056   27000      0    1.71e+00    0    1.18e+00
2006 11 17  0735    54056   27300      0    1.71e+00    0    1.21e+00
2006 11 17  0740    54056   27600      0    1.74e+00    0    1.22e+00
2006 11 17  0745    54056   27900      0    1.69e+00    0    1.19e+00
2006 11 17  0750    54056   28200      0    1.72e+00    0    1.20e+00
2006 11 17  0755    54056   28500      0    1.72e+00    0    1.22e+00
2006 11 17  0800    54056   28800      0    1.74e+00    0    1.22e+00
2006 11 17  0805    54056   29100      0    1.71e+00    0    1.21e+00
2006 11 17  0810    54056   29400      0    1.70e+00    0    1.20e+00
2006 11 17  0815    54056   29700      0    1.73e+00    0    1.21e+00
2006 11 17  0820    54056   30000      0    1.61e+00    0    1.13e+00
2006 11 17  0825    54056   30300      0    1.69e+00    0    1.20e+00
2006 11 17  0830    54056   30600      0    1.74e+00    0    1.23e+00
2006 11 17  0835    54056   30900      0    1.72e+00    0    1.21e+00
2006 11 17  0840    54056   31200      0    1.70e+00    0    1.20e+00
2006 11 17  0845    54056   31500      0    1.71e+00    0    1.19e+00
2006 11 17  0850    54056   31800      0    1.72e+00    0    1.21e+00
2006 11 17  0855    54056   32100      0    1.73e+00    0    1.20e+00
2006 11 17  0900    54056   32400      0    1.72e+00    0    1.20e+00
2006 11 17  0905    54056   32700      0    1.71e+00    0    1.19e+00
2006 11 17  0910    54056   33000      0    1.67e+00    0    1.17e+00
2006 11 17  0915    54056   33300      0    1.71e+00    0    1.20e+00
2006 11 17  0920    54056   33600      0    1.70e+00    0    1.18e+00
2006 11 17  0925    54056   33900      0    1.68e+00    0    1.18e+00
2006 11 17  0930    54056   34200      0    1.72e+00    0    1.20e+00
2006 11 17  0935    54056   34500      0    1.70e+00    0    1.20e+00
2006 11 17  0940    54056   34800      0    1.69e+00    0    1.17e+00
2006 11 17  0945    54056   35100      0    1.68e+00    0    1.19e+00
2006 11 17  0950    54056   35400      0    1.69e+00    0    1.20e+00
2006 11 17  0955    54056   35700      0    1.73e+00    0    1.22e+00
2006 11 17  1000    54056   36000      0    1.69e+00    0    1.19e+00
2006 11 17  1005    54056   36300      0    1.73e+00    0    1.21e+00
2006 11 17  1010    54056   36600      0    1.69e+00    0    1.19e+00
2006 11 17  1015    54056   36900      0    1.68e+00    0    1.18e+00
2006 11 17  1020    54056   37200      0    1.70e+00    0    1.20e+00
2006 11 17  1025    54056   37500      0    1.66e+00    0    1.18e+00
2006 11 17  1030    54056   37800      0    1.72e+00    0    1.21e+00
2006 11 17  1035    54056   38100      0    1.68e+00    0    1.17e+00
2006 11 17  1040    54056   38400      0    1.69e+00    0    1.17e+00
2006 11 17  1045    54056   38700      0    1.69e+00    0    1.19e+00
2006 11 17  1050    54056   39000      0    1.72e+00    0    1.20e+00
2006 11 17  1055    54056   39300      0    1.69e+00    0    1.19e+00
2006 11 17  1100    54056   39600      0    1.69e+00    0    1.18e+00
2006 11 17  1105    54056   39900      0    1.69e+00    0    1.17e+00
2006 11 17  1110    54056   40200      0    1.65e+00    0    1.15e+00
2006 11 17  1115    54056   40500      0    1.69e+00    0    1.19e+00
2006 11 17  1120    54056   40800      0    1.71e+00    0    1.20e+00
2006 11 17  1125    54056   41100      0    1.71e+00    0    1.20e+00
2006 11 17  1130    54056   41400      0    1.69e+00    0    1.18e+00
2006 11 17  1135    54056   41700      0    1.69e+00    0    1.18e+00
2006 11 17  1140    54056   42000      0    1.69e+00    0    1.18e+00
2006 11 17  1145    54056   42300      0    1.71e+00    0    1.20e+00
2006 11 17  1150    54056   42600      0    1.70e+00    0    1.19e+00
2006 11 17  1155    54056   42900      0    1.69e+00    0    1.19e+00
2006 11 17  1200    54056   43200      0    1.71e+00    0    1.20e+00
2006 11 17  1205    54056   43500      0    1.71e+00    0    1.20e+00
2006 11 17  1210    54056   43800      0    1.70e+00    0    1.19e+00
2006 11 17  1215    54056   44100      0    1.68e+00    0    1.18e+00
2006 11 17  1220    54056   44400      0    1.70e+00    0    1.18e+00
2006 11 17  1225    54056   44700      0    1.67e+00    0    1.17e+00
2006 11 17  1230    54056   45000      0    1.70e+00    0    1.20e+00
2006 11 17  1235    54056   45300      0    1.68e+00    0    1.19e+00
2006 11 17  1240    54056   45600      0    1.66e+00    0    1.16e+00
2006 11 17  1245    54056   45900      0    1.70e+00    0    1.18e+00
2006 11 17  1250    54056   46200      0    1.67e+00    0    1.16e+00
2006 11 17  1255    54056   46500      0    1.69e+00    0    1.18e+00
2006 11 17  1300    54056   46800      0    1.67e+00    0    1.17e+00
2006 11 17  1305    54056   47100      0    1.67e+00    0    1.16e+00
2006 11 17  1310    54056   47400      0    1.71e+00    0    1.20e+00
2006 11 17  1315    54056   47700      0    1.70e+00    0    1.19e+00
2006 11 17  1320    54056   48000      0    1.71e+00    0    1.21e+00
2006 11 17  1325    54056   48300      0    1.71e+00    0    1.21e+00
2006 11 17  1330    54056   48600      0    1.67e+00    0    1.17e+00
2006 11 17  1335    54056   48900      0    1.72e+00    0    1.20e+00
2006 11 17  1340    54056   49200      0    1.67e+00    0    1.17e+00
2006 11 17  1345    54056   49500      0    1.72e+00    0    1.19e+00
2006 11 17  1350    54056   49800      0    1.69e+00    0    1.19e+00
2006 11 17  1355    54056   50100      0    1.68e+00    0    1.19e+00
2006 11 17  1400    54056   50400      0    1.71e+00    0    1.19e+00
2006 11 17  1405    54056   50700      0    1.68e+00    0    1.18e+00
2006 11 17  1410    54056   51000      0    1.69e+00    0    1.19e+00
2006 11 17  1415    54056   51300      0    1.65e+00    0    1.15e+00
2006 11 17  1420    54056   51600      0    1.67e+00    0    1.16e+00
2006 11 17  1425    54056   51900      0    1.72e+00    0    1.22e+00
2006 11 17  1430    54056   52200      0    1.71e+00    0    1.20e+00
2006 11 17  1435    54056   52500      0    1.71e+00    0    1.20e+00
2006 11 17  1440    54056   52800      0    1.72e+00    0    1.20e+00
2006 11 17  1445    54056   53100      0    1.71e+00    0    1.21e+00
2006 11 17  1450    54056   53400      0    1.73e+00    0    1.21e+00
2006 11 17  1455    54056   53700      0    1.70e+00    0    1.19e+00
2006 11 17  1500    54056   54000      0    1.70e+00    0    1.19e+00
2006 11 17  1505    54056   54300      0    1.70e+00    0    1.19e+00
2006 11 17  1510    54056   54600      0    1.69e+00    0    1.19e+00
2006 11 17  1515    54056   54900      0    1.66e+00    0    1.17e+00
2006 11 17  1520    54056   55200      0    1.68e+00    0    1.16e+00
2006 11 17  1525    54056   55500      0    1.68e+00    0    1.17e+00
2006 11 17  1530    54056   55800      0    1.67e+00    0    1.18e+00
2006 11 17  1535    54056   56100      0    1.68e+00    0    1.17e+00
2006 11 17  1540    54056   56400      0    1.72e+00    0    1.21e+00
2006 11 17  1545    54056   56700      0    1.69e+00    0    1.18e+00
2006 11 17  1550    54056   57000      0    1.72e+00    0    1.19e+00
2006 11 17  1555    54056   57300      0    1.68e+00    0    1.18e+00
2006 11 17  1600    54056   57600      0    1.69e+00    0    1.17e+00
2006 11 17  1605    54056   57900      0    1.68e+00    0    1.19e+00
2006 11 17  1610    54056   58200      0    1.69e+00    0    1.17e+00
2006 11 17  1615    54056   58500      0    1.69e+00    0    1.19e+00
2006 11 17  1620    54056   58800      0    1.70e+00    0    1.19e+00
2006 11 17  1625    54056   59100      0    1.67e+00    0    1.17e+00
2006 11 17  1630    54056   59400      0    1.67e+00    0    1.17e+00
2006 11 17  1635    54056   59700      0    1.74e+00    0    1.22e+00
2006 11 17  1640    54056   60000      0    1.67e+00    0    1.17e+00
2006 11 17  1645    54056   60300      0    1.67e+00    0    1.17e+00
2006 11 17  1650    54056   60600      0    1.64e+00    0    1.15e+00
2006 11 17  1655    54056   60900      0    1.68e+00    0    1.17e+00
2006 11 17  1700    54056   61200      0    1.66e+00    0    1.16e+00
2006 11 17  1705    54056   61500      0    1.69e+00    0    1.19e+00
2006 11 17  1710    54056   61800      0    1.67e+00    0    1.16e+00
2006 11 17  1715    54056   62100      0    1.71e+00    0    1.20e+00
2006 11 17  1720    54056   62400      0    1.67e+00    0    1.17e+00
2006 11 17  1725    54056   62700      0    1.68e+00    0    1.18e+00
2006 11 17  1730    54056   63000      0    1.71e+00    0    1.19e+00
2006 11 17  1735    54056   63300      0    1.73e+00    0    1.21e+00
2006 11 17  1740    54056   63600      0    1.70e+00    0    1.19e+00
2006 11 17  1745    54056   63900      0    1.67e+00    0    1.17e+00
2006 11 17  1750    54056   64200      0    1.71e+00    0    1.20e+00
2006 11 17  1755    54056   64500      0    1.71e+00    0    1.19e+00
2006 11 17  1800    54056   64800      0    1.72e+00    0    1.19e+00
2006 11 17  1805    54056   65100      0    1.67e+00    0    1.17e+00
2006 11 17  1810    54056   65400      0    1.68e+00    0    1.17e+00
2006 11 17  1815    54056   65700      0    1.67e+00    0    1.18e+00
2006 11 17  1820    54056   66000      0    1.69e+00    0    1.20e+00
2006 11 17  1825    54056   66300      0    1.69e+00    0    1.17e+00
2006 11 17  1830    54056   66600      0    1.73e+00    0    1.21e+00
2006 11 17  1835    54056   66900      0    1.74e+00    0    1.21e+00
2006 11 17  1840    54056   67200      0    1.71e+00    0    1.21e+00
2006 11 17  1845    54056   67500      0    1.69e+00    0    1.19e+00
2006 11 17  1850    54056   67800      0    1.69e+00    0    1.20e+00
2006 11 17  1855    54056   68100      0    1.69e+00    0    1.19e+00
2006 11 17  1900    54056   68400      0    1.69e+00    0    1.18e+00
2006 11 17  1905    54056   68700      0    1.69e+00    0    1.19e+00
2006 11 17  1910    54056   69000      0    1.72e+00    0    1.21e+00
2006 11 17  1915    54056   69300      0    1.72e+00    0    1.21e+00
2006 11 17  1920    54056   69600      0    1.71e+00    0    1.20e+00
2006 11 17  1925    54056   69900      0    1.70e+00    0    1.19e+00
2006 11 17  1930    54056   70200      0    1.70e+00    0    1.19e+00
2006 11 17  1935    54056   70500      0    1.67e+00    0    1.18e+00
2006 11 17  1940    54056   70800      0    1.68e+00    0    1.17e+00
2006 11 17  1945    54056   71100      0    1.66e+00    0    1.16e+00
2006 11 17  1950    54056   71400      0    1.68e+00    0    1.18e+00
2006 11 17  1955    54056   71700      0    1.74e+00    0    1.22e+00
2006 11 17  2000    54056   72000      0    1.67e+00    0    1.17e+00
2006 11 17  2005    54056   72300      0    1.70e+00    0    1.19e+00
2006 11 17  2010    54056   72600      0    1.71e+00    0    1.20e+00
2006 11 17  2015    54056   72900      0    1.68e+00    0    1.19e+00
2006 11 17  2020    54056   73200      0    1.74e+00    0    1.22e+00
2006 11 17  2025    54056   73500      0    1.73e+00    0    1.20e+00
2006 11 17  2030    54056   73800      0    1.69e+00    0    1.19e+00
2006 11 17  2035    54056   74100      0    1.72e+00    0    1.19e+00
2006 11 17  2040    54056   74400      0    1.74e+00    0    1.23e+00
2006 11 17  2045    54056   74700      0    1.70e+00    0    1.17e+00
2006 11 17  2050    54056   75000      0    1.75e+00    0    1.23e+00
2006 11 17  2055    54056   75300      0    1.71e+00    0    1.21e+00
2006 11 17  2100    54056   75600      0    1.73e+00    0    1.22e+00
2006 11 17  2105    54056   75900      0    1.69e+00    0    1.18e+00
2006 11 17  2110    54056   76200      0    1.69e+00    0    1.19e+00
2006 11 17  2115    54056   76500      0    1.67e+00    0    1.17e+00
2006 11 17  2120    54056   76800      0    1.70e+00    0    1.19e+00
2006 11 17  2125    54056   77100      0    1.72e+00    0    1.21e+00
2006 11 17  2130    54056   77400      0    1.64e+00    0    1.14e+00
2006 11 17  2135    54056   77700      0    1.64e+00    0    1.14e+00
2006 11 17  2140    54056   78000      0    1.66e+00    0    1.16e+00
2006 11 17  2145    54056   78300      0    1.67e+00    0    1.17e+00
2006 11 17  2150    54056   78600      0    1.68e+00    0    1.19e+00
2006 11 17  2155    54056   78900      0    1.72e+00    0    1.21e+00
2006 11 17  2200    54056   79200      0    1.70e+00    0    1.20e+00
2006 11 17  2205    54056   79500      0    1.70e+00    0    1.18e+00
2006 11 17  2210    54056   79800      0    1.66e+00    0    1.18e+00
2006 11 17  2215    54056   80100      0    1.66e+00    0    1.14e+00
2006 11 17  2220    54056   80400      0    1.66e+00    0    1.17e+00
2006 11 17  2225    54056   80700      0    1.69e+00    0    1.19e+00
2006 11 17  2230    54056   81000      0    1.69e+00    0    1.19e+00
2006 11 17  2235    54056   81300      0    1.71e+00    0    1.19e+00
2006 11 17  2240    54056   81600      0    1.71e+00    0    1.19e+00
2006 11 17  2245    54056   81900      0    1.69e+00    0    1.18e+00
2006 11 17  2250    54056   82200      0    1.68e+00    0    1.17e+00
2006 11 17  2255    54056   82500      0    1.58e+00    0    1.11e+00
2006 11 17  2300    54056   82800      0    1.67e+00    0    1.17e+00
2006 11 17  2305    54056   83100      0    1.67e+00    0    1.18e+00
2006 11 17  2310    54056   83400      0    1.70e+00    0    1.19e+00
2006 11 17  2315    54056   83700      0    1.70e+00    0    1.19e+00
2006 11 17  2320    54056   84000      0    1.70e+00    0    1.19e+00
2006 11 17  2325    54056   84300      0    1.69e+00    0    1.18e+00
2006 11 17  2330    54056   84600      0    1.70e+00    0    1.19e+00
2006 11 17  2335    54056   84900      0    1.69e+00    0    1.17e+00
2006 11 17  2340    54056   85200      0    1.73e+00    0    1.21e+00
2006 11 17  2345    54056   85500      0    1.69e+00    0    1.18e+00
2006 11 17  2350    54056   85800      0    1.68e+00    0    1.18e+00
2006 11 17  2355    54056   86100      0    1.69e+00    0    1.19e+00
