:Data_list: 20061223_ace_sis_5m.txt
:Created: 2006 Dec 24 0011 UT
# Prepared by the U.S. Dept. of Commerce, NOAA, Space Environment Center.
# Please send comments and suggestions to SEC.Webmaster@noaa.gov 
# 
# Units: proton flux p/cs2-sec-ster
# Status(S): 0 = nominal data, 1 to 8 = bad data record, 9 = no data
# Missing data values: -1.00e+05
# Source: ACE Satellite - Solar Isotope Spectrometer
#
# 5-minute averaged Real-time Integral Flux of High-energy Solar Protons
# 
#                 Modified Seconds
# UT Date   Time   Julian  of the      ---- Integral Proton Flux ----
# YR MO DA  HHMM     Day     Day       S    > 10 MeV    S    > 30 MeV
#--------------------------------------------------------------------
2006 12 23  0000    54092       0      0    2.04e+00    0    1.42e+00
2006 12 23  0005    54092     300      0    2.07e+00    0    1.45e+00
2006 12 23  0010    54092     600      0    2.22e+00    0    1.56e+00
2006 12 23  0015    54092     900      0    2.17e+00    0    1.50e+00
2006 12 23  0020    54092    1200      0    2.20e+00    0    1.53e+00
2006 12 23  0025    54092    1500      0    2.13e+00    0    1.48e+00
2006 12 23  0030    54092    1800      0    2.12e+00    0    1.45e+00
2006 12 23  0035    54092    2100      0    2.07e+00    0    1.47e+00
2006 12 23  0040    54092    2400      0    2.10e+00    0    1.48e+00
2006 12 23  0045    54092    2700      0    2.23e+00    0    1.56e+00
2006 12 23  0050    54092    3000      0    2.07e+00    0    1.44e+00
2006 12 23  0055    54092    3300      0    2.16e+00    0    1.51e+00
2006 12 23  0100    54092    3600      0    2.10e+00    0    1.47e+00
2006 12 23  0105    54092    3900      0    2.07e+00    0    1.45e+00
2006 12 23  0110    54092    4200      0    1.99e+00    0    1.38e+00
2006 12 23  0115    54092    4500      0    2.12e+00    0    1.48e+00
2006 12 23  0120    54092    4800      0    2.23e+00    0    1.56e+00
2006 12 23  0125    54092    5100      0    2.15e+00    0    1.50e+00
2006 12 23  0130    54092    5400      0    2.13e+00    0    1.50e+00
2006 12 23  0135    54092    5700      0    2.08e+00    0    1.45e+00
2006 12 23  0140    54092    6000      0    2.10e+00    0    1.46e+00
2006 12 23  0145    54092    6300      0    2.09e+00    0    1.45e+00
2006 12 23  0150    54092    6600      0    2.15e+00    0    1.50e+00
2006 12 23  0155    54092    6900      0    2.14e+00    0    1.50e+00
2006 12 23  0200    54092    7200      0    2.15e+00    0    1.49e+00
2006 12 23  0205    54092    7500      0    2.16e+00    0    1.51e+00
2006 12 23  0210    54092    7800      0    2.07e+00    0    1.45e+00
2006 12 23  0215    54092    8100      0    2.07e+00    0    1.44e+00
2006 12 23  0220    54092    8400      0    2.05e+00    0    1.44e+00
2006 12 23  0225    54092    8700      0    2.26e+00    0    1.58e+00
2006 12 23  0230    54092    9000      0    2.19e+00    0    1.53e+00
2006 12 23  0235    54092    9300      0    2.17e+00    0    1.51e+00
2006 12 23  0240    54092    9600      0    2.16e+00    0    1.51e+00
2006 12 23  0245    54092    9900      0    2.13e+00    0    1.47e+00
2006 12 23  0250    54092   10200      0    2.05e+00    0    1.42e+00
2006 12 23  0255    54092   10500      0    2.07e+00    0    1.42e+00
2006 12 23  0300    54092   10800      0    2.23e+00    0    1.56e+00
2006 12 23  0305    54092   11100      0    2.11e+00    0    1.50e+00
2006 12 23  0310    54092   11400      0    2.15e+00    0    1.53e+00
2006 12 23  0315    54092   11700      0    2.12e+00    0    1.49e+00
2006 12 23  0320    54092   12000      0    2.08e+00    0    1.47e+00
2006 12 23  0325    54092   12300      0    1.98e+00    0    1.38e+00
2006 12 23  0330    54092   12600      0    1.97e+00    0    1.37e+00
2006 12 23  0335    54092   12900      0    2.19e+00    0    1.53e+00
2006 12 23  0340    54092   13200      0    2.16e+00    0    1.51e+00
2006 12 23  0345    54092   13500      0    2.13e+00    0    1.49e+00
2006 12 23  0350    54092   13800      0    2.13e+00    0    1.48e+00
2006 12 23  0355    54092   14100      0    2.10e+00    0    1.47e+00
2006 12 23  0400    54092   14400      0    1.99e+00    0    1.37e+00
2006 12 23  0405    54092   14700      0    2.07e+00    0    1.46e+00
2006 12 23  0410    54092   15000      0    2.25e+00    0    1.59e+00
2006 12 23  0415    54092   15300      0    2.14e+00    0    1.49e+00
2006 12 23  0420    54092   15600      0    2.16e+00    0    1.50e+00
2006 12 23  0425    54092   15900      0    2.06e+00    0    1.41e+00
2006 12 23  0430    54092   16200      0    2.06e+00    0    1.44e+00
2006 12 23  0435    54092   16500      0    2.02e+00    0    1.41e+00
2006 12 23  0440    54092   16800      0    2.16e+00    0    1.51e+00
2006 12 23  0445    54092   17100      0    2.23e+00    0    1.56e+00
2006 12 23  0450    54092   17400      0    2.14e+00    0    1.48e+00
2006 12 23  0455    54092   17700      0    2.17e+00    0    1.51e+00
2006 12 23  0500    54092   18000      0    2.14e+00    0    1.50e+00
2006 12 23  0505    54092   18300      0    2.06e+00    0    1.45e+00
2006 12 23  0510    54092   18600      0    2.02e+00    0    1.41e+00
2006 12 23  0515    54092   18900      0    2.17e+00    0    1.51e+00
2006 12 23  0520    54092   19200      0    2.21e+00    0    1.55e+00
2006 12 23  0525    54092   19500      0    2.23e+00    0    1.56e+00
2006 12 23  0530    54092   19800      0    2.15e+00    0    1.50e+00
2006 12 23  0535    54092   20100      0    2.18e+00    0    1.52e+00
2006 12 23  0540    54092   20400      0    2.12e+00    0    1.48e+00
2006 12 23  0545    54092   20700      0    2.07e+00    0    1.44e+00
2006 12 23  0550    54092   21000      0    2.18e+00    0    1.51e+00
2006 12 23  0555    54092   21300      0    2.23e+00    0    1.54e+00
2006 12 23  0600    54092   21600      0    2.17e+00    0    1.51e+00
2006 12 23  0605    54092   21900      0    2.13e+00    0    1.49e+00
2006 12 23  0610    54092   22200      0    2.10e+00    0    1.46e+00
2006 12 23  0615    54092   22500      0    2.10e+00    0    1.47e+00
2006 12 23  0620    54092   22800      0    2.05e+00    0    1.45e+00
2006 12 23  0625    54092   23100      0    2.20e+00    0    1.54e+00
2006 12 23  0630    54092   23400      0    2.27e+00    0    1.58e+00
2006 12 23  0635    54092   23700      0    2.21e+00    0    1.55e+00
2006 12 23  0640    54092   24000      0    2.16e+00    0    1.52e+00
2006 12 23  0645    54092   24300      0    2.16e+00    0    1.51e+00
2006 12 23  0650    54092   24600      0    2.05e+00    0    1.44e+00
2006 12 23  0655    54092   24900      0    2.04e+00    0    1.43e+00
2006 12 23  0700    54092   25200      0    2.25e+00    0    1.57e+00
2006 12 23  0705    54092   25500      0    2.22e+00    0    1.54e+00
2006 12 23  0710    54092   25800      0    2.16e+00    0    1.51e+00
2006 12 23  0715    54092   26100      0    2.11e+00    0    1.46e+00
2006 12 23  0720    54092   26400      0    2.13e+00    0    1.50e+00
2006 12 23  0725    54092   26700      0    2.06e+00    0    1.45e+00
2006 12 23  0730    54092   27000      0    2.13e+00    0    1.49e+00
2006 12 23  0735    54092   27300      0    2.23e+00    0    1.56e+00
2006 12 23  0740    54092   27600      0    2.23e+00    0    1.55e+00
2006 12 23  0745    54092   27900      0    2.13e+00    0    1.47e+00
2006 12 23  0750    54092   28200      0    2.10e+00    0    1.46e+00
2006 12 23  0755    54092   28500      0    2.06e+00    0    1.43e+00
2006 12 23  0800    54092   28800      0    2.02e+00    0    1.42e+00
2006 12 23  0805    54092   29100      0    2.19e+00    0    1.52e+00
2006 12 23  0810    54092   29400      0    2.25e+00    0    1.57e+00
2006 12 23  0815    54092   29700      0    2.21e+00    0    1.54e+00
2006 12 23  0820    54092   30000      0    2.14e+00    0    1.50e+00
2006 12 23  0825    54092   30300      0    2.13e+00    0    1.49e+00
2006 12 23  0830    54092   30600      0    2.10e+00    0    1.47e+00
2006 12 23  0835    54092   30900      0    2.00e+00    0    1.39e+00
2006 12 23  0840    54092   31200      0    2.15e+00    0    1.50e+00
2006 12 23  0845    54092   31500      0    2.18e+00    0    1.53e+00
2006 12 23  0850    54092   31800      0    2.16e+00    0    1.51e+00
2006 12 23  0855    54092   32100      0    2.19e+00    0    1.53e+00
2006 12 23  0900    54092   32400      0    2.13e+00    0    1.48e+00
2006 12 23  0905    54092   32700      0    2.03e+00    0    1.42e+00
2006 12 23  0910    54092   33000      0    2.08e+00    0    1.45e+00
2006 12 23  0915    54092   33300      0    2.21e+00    0    1.54e+00
2006 12 23  0920    54092   33600      0    2.16e+00    0    1.49e+00
2006 12 23  0925    54092   33900      0    2.21e+00    0    1.55e+00
2006 12 23  0930    54092   34200      0    2.15e+00    0    1.52e+00
2006 12 23  0935    54092   34500      0    2.11e+00    0    1.48e+00
2006 12 23  0940    54092   34800      0    2.08e+00    0    1.45e+00
2006 12 23  0945    54092   35100      0    2.15e+00    0    1.49e+00
2006 12 23  0950    54092   35400      0    2.25e+00    0    1.57e+00
2006 12 23  0955    54092   35700      0    2.18e+00    0    1.54e+00
2006 12 23  1000    54092   36000      0    2.17e+00    0    1.52e+00
2006 12 23  1005    54092   36300      0    2.12e+00    0    1.48e+00
2006 12 23  1010    54092   36600      0    2.19e+00    0    1.53e+00
2006 12 23  1015    54092   36900      0    2.02e+00    0    1.40e+00
2006 12 23  1020    54092   37200      0    2.08e+00    0    1.45e+00
2006 12 23  1025    54092   37500      0    2.18e+00    0    1.53e+00
2006 12 23  1030    54092   37800      0    2.19e+00    0    1.53e+00
2006 12 23  1035    54092   38100      0    2.20e+00    0    1.53e+00
2006 12 23  1040    54092   38400      0    2.07e+00    0    1.44e+00
2006 12 23  1045    54092   38700      0    2.11e+00    0    1.46e+00
2006 12 23  1050    54092   39000      0    2.08e+00    0    1.44e+00
2006 12 23  1055    54092   39300      0    2.17e+00    0    1.52e+00
2006 12 23  1100    54092   39600      0    2.24e+00    0    1.56e+00
2006 12 23  1105    54092   39900      0    2.14e+00    0    1.49e+00
2006 12 23  1110    54092   40200      0    2.07e+00    0    1.45e+00
2006 12 23  1115    54092   40500      0    2.14e+00    0    1.51e+00
2006 12 23  1120    54092   40800      0    2.09e+00    0    1.46e+00
2006 12 23  1125    54092   41100      0    2.04e+00    0    1.43e+00
2006 12 23  1130    54092   41400      0    2.17e+00    0    1.52e+00
2006 12 23  1135    54092   41700      0    2.20e+00    0    1.56e+00
2006 12 23  1140    54092   42000      0    2.20e+00    0    1.54e+00
2006 12 23  1145    54092   42300      0    2.15e+00    0    1.49e+00
2006 12 23  1150    54092   42600      0    2.16e+00    0    1.52e+00
2006 12 23  1155    54092   42900      0    2.08e+00    0    1.45e+00
2006 12 23  1200    54092   43200      0    2.08e+00    0    1.45e+00
2006 12 23  1205    54092   43500      0    2.24e+00    0    1.57e+00
2006 12 23  1210    54092   43800      0    2.25e+00    0    1.57e+00
2006 12 23  1215    54092   44100      0    2.19e+00    0    1.53e+00
2006 12 23  1220    54092   44400      0    2.13e+00    0    1.49e+00
2006 12 23  1225    54092   44700      0    2.12e+00    0    1.47e+00
2006 12 23  1230    54092   45000      0    2.07e+00    0    1.45e+00
2006 12 23  1235    54092   45300      0    2.07e+00    0    1.44e+00
2006 12 23  1240    54092   45600      0    2.22e+00    0    1.55e+00
2006 12 23  1245    54092   45900      0    2.20e+00    0    1.54e+00
2006 12 23  1250    54092   46200      0    2.19e+00    0    1.53e+00
2006 12 23  1255    54092   46500      0    2.21e+00    0    1.56e+00
2006 12 23  1300    54092   46800      0    2.19e+00    0    1.53e+00
2006 12 23  1305    54092   47100      0    2.11e+00    0    1.48e+00
2006 12 23  1310    54092   47400      0    2.10e+00    0    1.46e+00
2006 12 23  1315    54092   47700      0    2.24e+00    0    1.58e+00
2006 12 23  1320    54092   48000      0    2.23e+00    0    1.56e+00
2006 12 23  1325    54092   48300      0    2.19e+00    0    1.53e+00
2006 12 23  1330    54092   48600      0    2.16e+00    0    1.51e+00
2006 12 23  1335    54092   48900      0    2.13e+00    0    1.50e+00
2006 12 23  1340    54092   49200      0    2.11e+00    0    1.47e+00
2006 12 23  1345    54092   49500      0    2.14e+00    0    1.48e+00
2006 12 23  1350    54092   49800      0    2.25e+00    0    1.58e+00
2006 12 23  1355    54092   50100      0    2.21e+00    0    1.56e+00
2006 12 23  1400    54092   50400      0    2.24e+00    0    1.58e+00
2006 12 23  1405    54092   50700      0    2.13e+00    0    1.47e+00
2006 12 23  1410    54092   51000      0    2.13e+00    0    1.48e+00
2006 12 23  1415    54092   51300      0    2.09e+00    0    1.46e+00
2006 12 23  1420    54092   51600      0    2.12e+00    0    1.50e+00
2006 12 23  1425    54092   51900      0    2.24e+00    0    1.56e+00
2006 12 23  1430    54092   52200      0    2.16e+00    0    1.51e+00
2006 12 23  1435    54092   52500      0    2.25e+00    0    1.58e+00
2006 12 23  1440    54092   52800      0    2.16e+00    0    1.53e+00
2006 12 23  1445    54092   53100      0    2.08e+00    0    1.46e+00
2006 12 23  1450    54092   53400      0    2.04e+00    0    1.45e+00
2006 12 23  1455    54092   53700      0    2.18e+00    0    1.52e+00
2006 12 23  1500    54092   54000      0    2.23e+00    0    1.57e+00
2006 12 23  1505    54092   54300      0    2.16e+00    0    1.50e+00
2006 12 23  1510    54092   54600      0    2.15e+00    0    1.49e+00
2006 12 23  1515    54092   54900      0    2.10e+00    0    1.46e+00
2006 12 23  1520    54092   55200      0    2.07e+00    0    1.45e+00
2006 12 23  1525    54092   55500      0    2.03e+00    0    1.41e+00
2006 12 23  1530    54092   55800      0    2.20e+00    0    1.54e+00
2006 12 23  1535    54092   56100      0    2.24e+00    0    1.58e+00
2006 12 23  1540    54092   56400      0    2.21e+00    0    1.54e+00
2006 12 23  1545    54092   56700      0    2.19e+00    0    1.56e+00
2006 12 23  1550    54092   57000      0    2.03e+00    0    1.42e+00
2006 12 23  1555    54092   57300      0    2.11e+00    0    1.47e+00
2006 12 23  1600    54092   57600      0    2.08e+00    0    1.44e+00
2006 12 23  1605    54092   57900      0    2.27e+00    0    1.58e+00
2006 12 23  1610    54092   58200      0    2.31e+00    0    1.62e+00
2006 12 23  1615    54092   58500      0    2.21e+00    0    1.56e+00
2006 12 23  1620    54092   58800      0    2.13e+00    0    1.48e+00
2006 12 23  1625    54092   59100      0    2.13e+00    0    1.48e+00
2006 12 23  1630    54092   59400      0    2.08e+00    0    1.45e+00
2006 12 23  1635    54092   59700      0    2.11e+00    0    1.49e+00
2006 12 23  1640    54092   60000      0    2.28e+00    0    1.60e+00
2006 12 23  1645    54092   60300      0    2.24e+00    0    1.56e+00
2006 12 23  1650    54092   60600      0    2.19e+00    0    1.54e+00
2006 12 23  1655    54092   60900      0    2.15e+00    0    1.50e+00
2006 12 23  1700    54092   61200      0    2.08e+00    0    1.45e+00
2006 12 23  1705    54092   61500      0    2.02e+00    0    1.41e+00
2006 12 23  1710    54092   61800      0    2.10e+00    0    1.46e+00
2006 12 23  1715    54092   62100      0    2.26e+00    0    1.59e+00
2006 12 23  1720    54092   62400      0    2.19e+00    0    1.53e+00
2006 12 23  1725    54092   62700      0    2.21e+00    0    1.53e+00
2006 12 23  1730    54092   63000      0    2.13e+00    0    1.50e+00
2006 12 23  1735    54092   63300      0    2.11e+00    0    1.49e+00
2006 12 23  1740    54092   63600      0    2.06e+00    0    1.45e+00
2006 12 23  1745    54092   63900      0    2.13e+00    0    1.49e+00
2006 12 23  1750    54092   64200      0    2.22e+00    0    1.55e+00
2006 12 23  1755    54092   64500      0    2.21e+00    0    1.55e+00
2006 12 23  1800    54092   64800      0    2.13e+00    0    1.50e+00
2006 12 23  1805    54092   65100      0    2.13e+00    0    1.49e+00
2006 12 23  1810    54092   65400      0    2.10e+00    0    1.46e+00
2006 12 23  1815    54092   65700      0    2.05e+00    0    1.45e+00
2006 12 23  1820    54092   66000      0    2.23e+00    0    1.57e+00
2006 12 23  1825    54092   66300      0    2.22e+00    0    1.56e+00
2006 12 23  1830    54092   66600      0    2.24e+00    0    1.57e+00
2006 12 23  1835    54092   66900      0    2.19e+00    0    1.52e+00
2006 12 23  1840    54092   67200      0    2.16e+00    0    1.50e+00
2006 12 23  1845    54092   67500      0    2.10e+00    0    1.48e+00
2006 12 23  1850    54092   67800      0    2.14e+00    0    1.48e+00
2006 12 23  1855    54092   68100      0    2.25e+00    0    1.59e+00
2006 12 23  1900    54092   68400      0    2.19e+00    0    1.50e+00
2006 12 23  1905    54092   68700      0    2.17e+00    0    1.54e+00
2006 12 23  1910    54092   69000      0    2.17e+00    0    1.50e+00
2006 12 23  1915    54092   69300      0    2.12e+00    0    1.48e+00
2006 12 23  1920    54092   69600      0    2.05e+00    0    1.43e+00
2006 12 23  1925    54092   69900      0    2.08e+00    0    1.45e+00
2006 12 23  1930    54092   70200      0    2.26e+00    0    1.56e+00
2006 12 23  1935    54092   70500      0    2.20e+00    0    1.55e+00
2006 12 23  1940    54092   70800      0    2.23e+00    0    1.56e+00
2006 12 23  1945    54092   71100      0    2.12e+00    0    1.49e+00
2006 12 23  1950    54092   71400      0    2.11e+00    0    1.49e+00
2006 12 23  1955    54092   71700      0    2.02e+00    0    1.43e+00
2006 12 23  2000    54092   72000      0    2.08e+00    0    1.48e+00
2006 12 23  2005    54092   72300      0    2.17e+00    0    1.52e+00
2006 12 23  2010    54092   72600      0    2.18e+00    0    1.52e+00
2006 12 23  2015    54092   72900      0    2.23e+00    0    1.56e+00
2006 12 23  2020    54092   73200      0    2.11e+00    0    1.47e+00
2006 12 23  2025    54092   73500      0    2.06e+00    0    1.44e+00
2006 12 23  2030    54092   73800      0    2.08e+00    0    1.45e+00
2006 12 23  2035    54092   74100      0    2.10e+00    0    1.47e+00
2006 12 23  2040    54092   74400      0    2.23e+00    0    1.56e+00
2006 12 23  2045    54092   74700      0    2.22e+00    0    1.57e+00
2006 12 23  2050    54092   75000      0    2.14e+00    0    1.50e+00
2006 12 23  2055    54092   75300      0    2.15e+00    0    1.50e+00
2006 12 23  2100    54092   75600      0    2.16e+00    0    1.52e+00
2006 12 23  2105    54092   75900      0    2.07e+00    0    1.45e+00
2006 12 23  2110    54092   76200      0    2.18e+00    0    1.56e+00
2006 12 23  2115    54092   76500      0    2.22e+00    0    1.54e+00
2006 12 23  2120    54092   76800      0    2.18e+00    0    1.52e+00
2006 12 23  2125    54092   77100      0    2.16e+00    0    1.52e+00
2006 12 23  2130    54092   77400      0    2.12e+00    0    1.47e+00
2006 12 23  2135    54092   77700      0    2.13e+00    0    1.47e+00
2006 12 23  2140    54092   78000      0    2.03e+00    0    1.42e+00
2006 12 23  2145    54092   78300      0    2.23e+00    0    1.56e+00
2006 12 23  2150    54092   78600      0    2.26e+00    0    1.58e+00
2006 12 23  2155    54092   78900      0    2.21e+00    0    1.54e+00
2006 12 23  2200    54092   79200      0    2.19e+00    0    1.52e+00
2006 12 23  2205    54092   79500      0    2.15e+00    0    1.50e+00
2006 12 23  2210    54092   79800      0    2.08e+00    0    1.47e+00
2006 12 23  2215    54092   80100      0    2.09e+00    0    1.47e+00
2006 12 23  2220    54092   80400      0    2.19e+00    0    1.54e+00
2006 12 23  2225    54092   80700      0    2.23e+00    0    1.55e+00
2006 12 23  2230    54092   81000      0    2.22e+00    0    1.55e+00
2006 12 23  2235    54092   81300      0    2.11e+00    0    1.48e+00
2006 12 23  2240    54092   81600      0    2.14e+00    0    1.49e+00
2006 12 23  2245    54092   81900      0    2.10e+00    0    1.47e+00
2006 12 23  2250    54092   82200      0    2.08e+00    0    1.46e+00
2006 12 23  2255    54092   82500      0    2.23e+00    0    1.56e+00
2006 12 23  2300    54092   82800      0    2.22e+00    0    1.54e+00
2006 12 23  2305    54092   83100      0    2.19e+00    0    1.52e+00
2006 12 23  2310    54092   83400      0    2.18e+00    0    1.50e+00
2006 12 23  2315    54092   83700      0    2.09e+00    0    1.45e+00
2006 12 23  2320    54092   84000      0    2.08e+00    0    1.45e+00
2006 12 23  2325    54092   84300      0    2.15e+00    0    1.51e+00
2006 12 23  2330    54092   84600      0    2.22e+00    0    1.56e+00
2006 12 23  2335    54092   84900      0    2.24e+00    0    1.56e+00
2006 12 23  2340    54092   85200      0    2.15e+00    0    1.51e+00
2006 12 23  2345    54092   85500      0    2.12e+00    0    1.48e+00
2006 12 23  2350    54092   85800      0    2.11e+00    0    1.47e+00
2006 12 23  2355    54092   86100      0    2.08e+00    0    1.46e+00
