:Data_list: 20061027_ace_sis_5m.txt
:Created: 2006 Oct 28 0011 UT
# Prepared by the U.S. Dept. of Commerce, NOAA, Space Environment Center.
# Please send comments and suggestions to SEC.Webmaster@noaa.gov 
# 
# Units: proton flux p/cs2-sec-ster
# Status(S): 0 = nominal data, 1 to 8 = bad data record, 9 = no data
# Missing data values: -1.00e+05
# Source: ACE Satellite - Solar Isotope Spectrometer
#
# 5-minute averaged Real-time Integral Flux of High-energy Solar Protons
# 
#                 Modified Seconds
# UT Date   Time   Julian  of the      ---- Integral Proton Flux ----
# YR MO DA  HHMM     Day     Day       S    > 10 MeV    S    > 30 MeV
#--------------------------------------------------------------------
2006 10 27  0000    54035       0      0    1.71e+00    0    1.20e+00
2006 10 27  0005    54035     300      0    1.70e+00    0    1.19e+00
2006 10 27  0010    54035     600      0    1.68e+00    0    1.18e+00
2006 10 27  0015    54035     900      0    1.70e+00    0    1.20e+00
2006 10 27  0020    54035    1200      0    1.71e+00    0    1.19e+00
2006 10 27  0025    54035    1500      0    1.71e+00    0    1.20e+00
2006 10 27  0030    54035    1800      0    1.68e+00    0    1.18e+00
2006 10 27  0035    54035    2100      0    1.75e+00    0    1.22e+00
2006 10 27  0040    54035    2400      0    1.74e+00    0    1.22e+00
2006 10 27  0045    54035    2700      0    1.68e+00    0    1.19e+00
2006 10 27  0050    54035    3000      0    1.70e+00    0    1.20e+00
2006 10 27  0055    54035    3300      0    1.69e+00    0    1.19e+00
2006 10 27  0100    54035    3600      0    1.70e+00    0    1.18e+00
2006 10 27  0105    54035    3900      0    1.71e+00    0    1.20e+00
2006 10 27  0110    54035    4200      0    1.73e+00    0    1.21e+00
2006 10 27  0115    54035    4500      0    1.73e+00    0    1.22e+00
2006 10 27  0120    54035    4800      0    1.70e+00    0    1.19e+00
2006 10 27  0125    54035    5100      0    1.71e+00    0    1.21e+00
2006 10 27  0130    54035    5400      0    1.70e+00    0    1.19e+00
2006 10 27  0135    54035    5700      0    1.69e+00    0    1.18e+00
2006 10 27  0140    54035    6000      0    1.71e+00    0    1.20e+00
2006 10 27  0145    54035    6300      0    1.75e+00    0    1.23e+00
2006 10 27  0150    54035    6600      0    1.71e+00    0    1.20e+00
2006 10 27  0155    54035    6900      0    1.75e+00    0    1.24e+00
2006 10 27  0200    54035    7200      0    1.68e+00    0    1.17e+00
2006 10 27  0205    54035    7500      0    1.71e+00    0    1.20e+00
2006 10 27  0210    54035    7800      0    1.72e+00    0    1.21e+00
2006 10 27  0215    54035    8100      0    1.71e+00    0    1.20e+00
2006 10 27  0220    54035    8400      0    1.69e+00    0    1.18e+00
2006 10 27  0225    54035    8700      0    1.69e+00    0    1.19e+00
2006 10 27  0230    54035    9000      0    1.69e+00    0    1.18e+00
2006 10 27  0235    54035    9300      0    1.71e+00    0    1.20e+00
2006 10 27  0240    54035    9600      0    1.73e+00    0    1.23e+00
2006 10 27  0245    54035    9900      0    1.69e+00    0    1.18e+00
2006 10 27  0250    54035   10200      0    1.75e+00    0    1.23e+00
2006 10 27  0255    54035   10500      0    1.74e+00    0    1.22e+00
2006 10 27  0300    54035   10800      0    1.73e+00    0    1.22e+00
2006 10 27  0305    54035   11100      0    1.71e+00    0    1.20e+00
2006 10 27  0310    54035   11400      0    1.71e+00    0    1.21e+00
2006 10 27  0315    54035   11700      0    1.76e+00    0    1.23e+00
2006 10 27  0320    54035   12000      0    1.72e+00    0    1.21e+00
2006 10 27  0325    54035   12300      0    1.75e+00    0    1.23e+00
2006 10 27  0330    54035   12600      0    1.66e+00    0    1.17e+00
2006 10 27  0335    54035   12900      0    1.72e+00    0    1.21e+00
2006 10 27  0340    54035   13200      0    1.70e+00    0    1.20e+00
2006 10 27  0345    54035   13500      0    1.68e+00    0    1.17e+00
2006 10 27  0350    54035   13800      0    1.70e+00    0    1.20e+00
2006 10 27  0355    54035   14100      0    1.68e+00    0    1.17e+00
2006 10 27  0400    54035   14400      0    1.74e+00    0    1.21e+00
2006 10 27  0405    54035   14700      0    1.70e+00    0    1.19e+00
2006 10 27  0410    54035   15000      0    1.76e+00    0    1.25e+00
2006 10 27  0415    54035   15300      0    1.71e+00    0    1.21e+00
2006 10 27  0420    54035   15600      0    1.72e+00    0    1.22e+00
2006 10 27  0425    54035   15900      0    1.70e+00    0    1.19e+00
2006 10 27  0430    54035   16200      0    1.70e+00    0    1.18e+00
2006 10 27  0435    54035   16500      0    1.73e+00    0    1.21e+00
2006 10 27  0440    54035   16800      0    1.71e+00    0    1.19e+00
2006 10 27  0445    54035   17100      0    1.72e+00    0    1.20e+00
2006 10 27  0450    54035   17400      0    1.77e+00    0    1.25e+00
2006 10 27  0455    54035   17700      0    1.71e+00    0    1.19e+00
2006 10 27  0500    54035   18000      0    1.73e+00    0    1.21e+00
2006 10 27  0505    54035   18300      0    1.74e+00    0    1.22e+00
2006 10 27  0510    54035   18600      0    1.70e+00    0    1.19e+00
2006 10 27  0515    54035   18900      0    1.75e+00    0    1.22e+00
2006 10 27  0520    54035   19200      0    1.71e+00    0    1.20e+00
2006 10 27  0525    54035   19500      0    1.71e+00    0    1.21e+00
2006 10 27  0530    54035   19800      0    1.71e+00    0    1.20e+00
2006 10 27  0535    54035   20100      0    1.72e+00    0    1.21e+00
2006 10 27  0540    54035   20400      0    1.73e+00    0    1.21e+00
2006 10 27  0545    54035   20700      0    1.71e+00    0    1.19e+00
2006 10 27  0550    54035   21000      0    1.68e+00    0    1.17e+00
2006 10 27  0555    54035   21300      0    1.70e+00    0    1.19e+00
2006 10 27  0600    54035   21600      0    1.71e+00    0    1.19e+00
2006 10 27  0605    54035   21900      0    1.70e+00    0    1.18e+00
2006 10 27  0610    54035   22200      0    1.68e+00    0    1.17e+00
2006 10 27  0615    54035   22500      0    1.70e+00    0    1.20e+00
2006 10 27  0620    54035   22800      0    1.71e+00    0    1.20e+00
2006 10 27  0625    54035   23100      0    1.72e+00    0    1.21e+00
2006 10 27  0630    54035   23400      0    1.72e+00    0    1.21e+00
2006 10 27  0635    54035   23700      0    1.71e+00    0    1.19e+00
2006 10 27  0640    54035   24000      0    1.71e+00    0    1.20e+00
2006 10 27  0645    54035   24300      0    1.73e+00    0    1.22e+00
2006 10 27  0650    54035   24600      0    1.68e+00    0    1.18e+00
2006 10 27  0655    54035   24900      0    1.73e+00    0    1.22e+00
2006 10 27  0700    54035   25200      0    1.62e+00    0    1.14e+00
2006 10 27  0705    54035   25500      0    1.69e+00    0    1.18e+00
2006 10 27  0710    54035   25800      0    1.69e+00    0    1.18e+00
2006 10 27  0715    54035   26100      0    1.71e+00    0    1.21e+00
2006 10 27  0720    54035   26400      0    1.71e+00    0    1.19e+00
2006 10 27  0725    54035   26700      0    1.70e+00    0    1.20e+00
2006 10 27  0730    54035   27000      0    1.72e+00    0    1.21e+00
2006 10 27  0735    54035   27300      0    1.73e+00    0    1.21e+00
2006 10 27  0740    54035   27600      0    1.73e+00    0    1.21e+00
2006 10 27  0745    54035   27900      0    1.72e+00    0    1.21e+00
2006 10 27  0750    54035   28200      0    1.71e+00    0    1.21e+00
2006 10 27  0755    54035   28500      0    1.70e+00    0    1.20e+00
2006 10 27  0800    54035   28800      0    1.73e+00    0    1.22e+00
2006 10 27  0805    54035   29100      0    1.74e+00    0    1.22e+00
2006 10 27  0810    54035   29400      0    1.70e+00    0    1.19e+00
2006 10 27  0815    54035   29700      0    1.72e+00    0    1.21e+00
2006 10 27  0820    54035   30000      0    1.70e+00    0    1.19e+00
2006 10 27  0825    54035   30300      0    1.71e+00    0    1.19e+00
2006 10 27  0830    54035   30600      0    1.71e+00    0    1.19e+00
2006 10 27  0835    54035   30900      0    1.74e+00    0    1.22e+00
2006 10 27  0840    54035   31200      0    1.70e+00    0    1.18e+00
2006 10 27  0845    54035   31500      0    1.70e+00    0    1.20e+00
2006 10 27  0850    54035   31800      0    1.74e+00    0    1.23e+00
2006 10 27  0855    54035   32100      0    1.74e+00    0    1.23e+00
2006 10 27  0900    54035   32400      0    1.68e+00    0    1.17e+00
2006 10 27  0905    54035   32700      0    1.71e+00    0    1.21e+00
2006 10 27  0910    54035   33000      0    1.71e+00    0    1.20e+00
2006 10 27  0915    54035   33300      0    1.74e+00    0    1.21e+00
2006 10 27  0920    54035   33600      0    1.69e+00    0    1.18e+00
2006 10 27  0925    54035   33900      0    1.72e+00    0    1.20e+00
2006 10 27  0930    54035   34200      0    1.77e+00    0    1.24e+00
2006 10 27  0935    54035   34500      0    1.71e+00    0    1.21e+00
2006 10 27  0940    54035   34800      0    1.72e+00    0    1.22e+00
2006 10 27  0945    54035   35100      0    1.72e+00    0    1.21e+00
2006 10 27  0950    54035   35400      0    1.69e+00    0    1.19e+00
2006 10 27  0955    54035   35700      0    1.74e+00    0    1.20e+00
2006 10 27  1000    54035   36000      0    1.75e+00    0    1.23e+00
2006 10 27  1005    54035   36300      0    1.77e+00    0    1.25e+00
2006 10 27  1010    54035   36600      0    1.71e+00    0    1.18e+00
2006 10 27  1015    54035   36900      0    1.71e+00    0    1.20e+00
2006 10 27  1020    54035   37200      0    1.73e+00    0    1.21e+00
2006 10 27  1025    54035   37500      0    1.73e+00    0    1.23e+00
2006 10 27  1030    54035   37800      0    1.69e+00    0    1.19e+00
2006 10 27  1035    54035   38100      0    1.71e+00    0    1.19e+00
2006 10 27  1040    54035   38400      0    1.71e+00    0    1.20e+00
2006 10 27  1045    54035   38700      0    1.73e+00    0    1.20e+00
2006 10 27  1050    54035   39000      0    1.73e+00    0    1.22e+00
2006 10 27  1055    54035   39300      0    1.70e+00    0    1.19e+00
2006 10 27  1100    54035   39600      0    1.74e+00    0    1.23e+00
2006 10 27  1105    54035   39900      0    1.73e+00    0    1.22e+00
2006 10 27  1110    54035   40200      0    1.71e+00    0    1.21e+00
2006 10 27  1115    54035   40500      0    1.69e+00    0    1.19e+00
2006 10 27  1120    54035   40800      0    1.74e+00    0    1.22e+00
2006 10 27  1125    54035   41100      0    1.71e+00    0    1.20e+00
2006 10 27  1130    54035   41400      0    1.72e+00    0    1.20e+00
2006 10 27  1135    54035   41700      0    1.77e+00    0    1.24e+00
2006 10 27  1140    54035   42000      0    1.73e+00    0    1.21e+00
2006 10 27  1145    54035   42300      0    1.71e+00    0    1.20e+00
2006 10 27  1150    54035   42600      0    1.71e+00    0    1.21e+00
2006 10 27  1155    54035   42900      0    1.72e+00    0    1.20e+00
2006 10 27  1200    54035   43200      0    1.73e+00    0    1.22e+00
2006 10 27  1205    54035   43500      0    1.76e+00    0    1.22e+00
2006 10 27  1210    54035   43800      0    1.72e+00    0    1.20e+00
2006 10 27  1215    54035   44100      0    1.71e+00    0    1.20e+00
2006 10 27  1220    54035   44400      0    1.73e+00    0    1.21e+00
2006 10 27  1225    54035   44700      0    1.73e+00    0    1.22e+00
2006 10 27  1230    54035   45000      0    1.75e+00    0    1.24e+00
2006 10 27  1235    54035   45300      0    1.76e+00    0    1.23e+00
2006 10 27  1240    54035   45600      0    1.71e+00    0    1.19e+00
2006 10 27  1245    54035   45900      0    1.74e+00    0    1.22e+00
2006 10 27  1250    54035   46200      0    1.74e+00    0    1.22e+00
2006 10 27  1255    54035   46500      0    1.74e+00    0    1.23e+00
2006 10 27  1300    54035   46800      0    1.72e+00    0    1.20e+00
2006 10 27  1305    54035   47100      0    1.71e+00    0    1.20e+00
2006 10 27  1310    54035   47400      0    1.71e+00    0    1.20e+00
2006 10 27  1315    54035   47700      0    1.68e+00    0    1.17e+00
2006 10 27  1320    54035   48000      0    1.71e+00    0    1.20e+00
2006 10 27  1325    54035   48300      0    1.70e+00    0    1.19e+00
2006 10 27  1330    54035   48600      0    1.74e+00    0    1.23e+00
2006 10 27  1335    54035   48900      0    1.73e+00    0    1.21e+00
2006 10 27  1340    54035   49200      0    1.75e+00    0    1.23e+00
2006 10 27  1345    54035   49500      0    1.71e+00    0    1.19e+00
2006 10 27  1350    54035   49800      0    1.71e+00    0    1.19e+00
2006 10 27  1355    54035   50100      0    1.72e+00    0    1.21e+00
2006 10 27  1400    54035   50400      0    1.71e+00    0    1.20e+00
2006 10 27  1405    54035   50700      0    1.74e+00    0    1.22e+00
2006 10 27  1410    54035   51000      0    1.71e+00    0    1.20e+00
2006 10 27  1415    54035   51300      0    1.68e+00    0    1.19e+00
2006 10 27  1420    54035   51600      0    1.70e+00    0    1.20e+00
2006 10 27  1425    54035   51900      0    1.73e+00    0    1.21e+00
2006 10 27  1430    54035   52200      0    1.75e+00    0    1.23e+00
2006 10 27  1435    54035   52500      0    1.76e+00    0    1.24e+00
2006 10 27  1440    54035   52800      0    1.72e+00    0    1.21e+00
2006 10 27  1445    54035   53100      0    1.73e+00    0    1.22e+00
2006 10 27  1450    54035   53400      0    1.75e+00    0    1.23e+00
2006 10 27  1455    54035   53700      0    1.71e+00    0    1.18e+00
2006 10 27  1500    54035   54000      0    1.70e+00    0    1.19e+00
2006 10 27  1505    54035   54300      0    1.72e+00    0    1.20e+00
2006 10 27  1510    54035   54600      0    1.74e+00    0    1.22e+00
2006 10 27  1515    54035   54900      0    1.74e+00    0    1.22e+00
2006 10 27  1520    54035   55200      0    1.72e+00    0    1.20e+00
2006 10 27  1525    54035   55500      0    1.71e+00    0    1.20e+00
2006 10 27  1530    54035   55800      0    1.60e+00    0    1.12e+00
2006 10 27  1535    54035   56100      0    1.70e+00    0    1.19e+00
2006 10 27  1540    54035   56400      0    1.71e+00    0    1.19e+00
2006 10 27  1545    54035   56700      0    1.72e+00    0    1.20e+00
2006 10 27  1550    54035   57000      0    1.71e+00    0    1.18e+00
2006 10 27  1555    54035   57300      0    1.72e+00    0    1.21e+00
2006 10 27  1600    54035   57600      0    1.70e+00    0    1.19e+00
2006 10 27  1605    54035   57900      0    1.75e+00    0    1.23e+00
2006 10 27  1610    54035   58200      0    1.74e+00    0    1.21e+00
2006 10 27  1615    54035   58500      0    1.76e+00    0    1.23e+00
2006 10 27  1620    54035   58800      0    1.69e+00    0    1.18e+00
2006 10 27  1625    54035   59100      0    1.75e+00    0    1.24e+00
2006 10 27  1630    54035   59400      0    1.72e+00    0    1.21e+00
2006 10 27  1635    54035   59700      0    1.72e+00    0    1.20e+00
2006 10 27  1640    54035   60000      0    1.72e+00    0    1.22e+00
2006 10 27  1645    54035   60300      0    1.73e+00    0    1.22e+00
2006 10 27  1650    54035   60600      0    1.72e+00    0    1.19e+00
2006 10 27  1655    54035   60900      0    1.74e+00    0    1.22e+00
2006 10 27  1700    54035   61200      0    1.72e+00    0    1.21e+00
2006 10 27  1705    54035   61500      0    1.71e+00    0    1.20e+00
2006 10 27  1710    54035   61800      0    1.73e+00    0    1.22e+00
2006 10 27  1715    54035   62100      0    1.73e+00    0    1.22e+00
2006 10 27  1720    54035   62400      0    1.74e+00    0    1.23e+00
2006 10 27  1725    54035   62700      0    1.74e+00    0    1.22e+00
2006 10 27  1730    54035   63000      0    1.69e+00    0    1.17e+00
2006 10 27  1735    54035   63300      0    1.69e+00    0    1.19e+00
2006 10 27  1740    54035   63600      0    1.69e+00    0    1.17e+00
2006 10 27  1745    54035   63900      0    1.70e+00    0    1.18e+00
2006 10 27  1750    54035   64200      0    1.69e+00    0    1.19e+00
2006 10 27  1755    54035   64500      0    1.71e+00    0    1.20e+00
2006 10 27  1800    54035   64800      0    1.70e+00    0    1.19e+00
2006 10 27  1805    54035   65100      0    1.72e+00    0    1.20e+00
2006 10 27  1810    54035   65400      0    1.72e+00    0    1.20e+00
2006 10 27  1815    54035   65700      0    1.71e+00    0    1.19e+00
2006 10 27  1820    54035   66000      0    1.72e+00    0    1.21e+00
2006 10 27  1825    54035   66300      0    1.72e+00    0    1.20e+00
2006 10 27  1830    54035   66600      0    1.74e+00    0    1.21e+00
2006 10 27  1835    54035   66900      0    1.73e+00    0    1.21e+00
2006 10 27  1840    54035   67200      0    1.71e+00    0    1.20e+00
2006 10 27  1845    54035   67500      0    1.70e+00    0    1.21e+00
2006 10 27  1850    54035   67800      0    1.74e+00    0    1.22e+00
2006 10 27  1855    54035   68100      0    1.70e+00    0    1.18e+00
2006 10 27  1900    54035   68400      0    1.70e+00    0    1.19e+00
2006 10 27  1905    54035   68700      0    1.70e+00    0    1.21e+00
2006 10 27  1910    54035   69000      0    1.69e+00    0    1.18e+00
2006 10 27  1915    54035   69300      0    1.74e+00    0    1.22e+00
2006 10 27  1920    54035   69600      0    1.69e+00    0    1.19e+00
2006 10 27  1925    54035   69900      0    1.69e+00    0    1.18e+00
2006 10 27  1930    54035   70200      0    1.75e+00    0    1.23e+00
2006 10 27  1935    54035   70500      0    1.71e+00    0    1.21e+00
2006 10 27  1940    54035   70800      0    1.71e+00    0    1.20e+00
2006 10 27  1945    54035   71100      0    1.76e+00    0    1.22e+00
2006 10 27  1950    54035   71400      0    1.73e+00    0    1.22e+00
2006 10 27  1955    54035   71700      0    1.75e+00    0    1.22e+00
2006 10 27  2000    54035   72000      0    1.74e+00    0    1.22e+00
2006 10 27  2005    54035   72300      0    1.71e+00    0    1.21e+00
2006 10 27  2010    54035   72600      0    1.67e+00    0    1.16e+00
2006 10 27  2015    54035   72900      0    1.75e+00    0    1.22e+00
2006 10 27  2020    54035   73200      0    1.73e+00    0    1.23e+00
2006 10 27  2025    54035   73500      0    1.75e+00    0    1.22e+00
2006 10 27  2030    54035   73800      0    1.72e+00    0    1.19e+00
2006 10 27  2035    54035   74100      0    1.73e+00    0    1.23e+00
2006 10 27  2040    54035   74400      0    1.71e+00    0    1.20e+00
2006 10 27  2045    54035   74700      0    1.72e+00    0    1.22e+00
2006 10 27  2050    54035   75000      0    1.75e+00    0    1.23e+00
2006 10 27  2055    54035   75300      0    1.75e+00    0    1.22e+00
2006 10 27  2100    54035   75600      0    1.72e+00    0    1.21e+00
2006 10 27  2105    54035   75900      0    1.74e+00    0    1.21e+00
2006 10 27  2110    54035   76200      0    1.73e+00    0    1.21e+00
2006 10 27  2115    54035   76500      0    1.71e+00    0    1.21e+00
2006 10 27  2120    54035   76800      0    1.74e+00    0    1.23e+00
2006 10 27  2125    54035   77100      0    1.71e+00    0    1.19e+00
2006 10 27  2130    54035   77400      0    1.75e+00    0    1.23e+00
2006 10 27  2135    54035   77700      0    1.73e+00    0    1.22e+00
2006 10 27  2140    54035   78000      0    1.73e+00    0    1.21e+00
2006 10 27  2145    54035   78300      0    1.69e+00    0    1.19e+00
2006 10 27  2150    54035   78600      0    1.72e+00    0    1.20e+00
2006 10 27  2155    54035   78900      0    1.68e+00    0    1.17e+00
2006 10 27  2200    54035   79200      0    1.74e+00    0    1.23e+00
2006 10 27  2205    54035   79500      0    1.73e+00    0    1.22e+00
2006 10 27  2210    54035   79800      0    1.75e+00    0    1.24e+00
2006 10 27  2215    54035   80100      0    1.69e+00    0    1.18e+00
2006 10 27  2220    54035   80400      0    1.70e+00    0    1.19e+00
2006 10 27  2225    54035   80700      0    1.71e+00    0    1.20e+00
2006 10 27  2230    54035   81000      0    1.72e+00    0    1.21e+00
2006 10 27  2235    54035   81300      0    1.72e+00    0    1.21e+00
2006 10 27  2240    54035   81600      0    1.74e+00    0    1.21e+00
2006 10 27  2245    54035   81900      0    1.75e+00    0    1.21e+00
2006 10 27  2250    54035   82200      0    1.75e+00    0    1.23e+00
2006 10 27  2255    54035   82500      0    1.70e+00    0    1.19e+00
2006 10 27  2300    54035   82800      0    1.70e+00    0    1.19e+00
2006 10 27  2305    54035   83100      0    1.69e+00    0    1.18e+00
2006 10 27  2310    54035   83400      0    1.74e+00    0    1.22e+00
2006 10 27  2315    54035   83700      0    1.73e+00    0    1.22e+00
2006 10 27  2320    54035   84000      0    1.74e+00    0    1.22e+00
2006 10 27  2325    54035   84300      0    1.72e+00    0    1.20e+00
2006 10 27  2330    54035   84600      0    1.70e+00    0    1.18e+00
2006 10 27  2335    54035   84900      0    1.69e+00    0    1.19e+00
2006 10 27  2340    54035   85200      0    1.69e+00    0    1.18e+00
2006 10 27  2345    54035   85500      0    1.68e+00    0    1.17e+00
2006 10 27  2350    54035   85800      0    1.75e+00    0    1.23e+00
2006 10 27  2355    54035   86100      0    1.72e+00    0    1.20e+00
