:Data_list: 20061002_ace_sis_5m.txt
:Created: 2006 Oct 03 0011 UT
# Prepared by the U.S. Dept. of Commerce, NOAA, Space Environment Center.
# Please send comments and suggestions to SEC.Webmaster@noaa.gov 
# 
# Units: proton flux p/cs2-sec-ster
# Status(S): 0 = nominal data, 1 to 8 = bad data record, 9 = no data
# Missing data values: -1.00e+05
# Source: ACE Satellite - Solar Isotope Spectrometer
#
# 5-minute averaged Real-time Integral Flux of High-energy Solar Protons
# 
#                 Modified Seconds
# UT Date   Time   Julian  of the      ---- Integral Proton Flux ----
# YR MO DA  HHMM     Day     Day       S    > 10 MeV    S    > 30 MeV
#--------------------------------------------------------------------
2006 10 02  0000    54010       0      0    1.64e+00    0    1.14e+00
2006 10 02  0005    54010     300      0    1.63e+00    0    1.13e+00
2006 10 02  0010    54010     600      0    1.63e+00    0    1.15e+00
2006 10 02  0015    54010     900      0    1.63e+00    0    1.14e+00
2006 10 02  0020    54010    1200      0    1.64e+00    0    1.14e+00
2006 10 02  0025    54010    1500      0    1.63e+00    0    1.14e+00
2006 10 02  0030    54010    1800      0    1.63e+00    0    1.15e+00
2006 10 02  0035    54010    2100      0    1.63e+00    0    1.15e+00
2006 10 02  0040    54010    2400      0    1.63e+00    0    1.14e+00
2006 10 02  0045    54010    2700      0    1.58e+00    0    1.11e+00
2006 10 02  0050    54010    3000      0    1.60e+00    0    1.11e+00
2006 10 02  0055    54010    3300      0    1.63e+00    0    1.14e+00
2006 10 02  0100    54010    3600      0    1.61e+00    0    1.13e+00
2006 10 02  0105    54010    3900      0    1.63e+00    0    1.15e+00
2006 10 02  0110    54010    4200      0    1.60e+00    0    1.12e+00
2006 10 02  0115    54010    4500      0    1.62e+00    0    1.14e+00
2006 10 02  0120    54010    4800      0    1.60e+00    0    1.13e+00
2006 10 02  0125    54010    5100      0    1.61e+00    0    1.13e+00
2006 10 02  0130    54010    5400      0    1.62e+00    0    1.14e+00
2006 10 02  0135    54010    5700      0    1.60e+00    0    1.12e+00
2006 10 02  0140    54010    6000      0    1.64e+00    0    1.14e+00
2006 10 02  0145    54010    6300      0    1.63e+00    0    1.14e+00
2006 10 02  0150    54010    6600      0    1.59e+00    0    1.12e+00
2006 10 02  0155    54010    6900      0    1.62e+00    0    1.13e+00
2006 10 02  0200    54010    7200      0    1.62e+00    0    1.13e+00
2006 10 02  0205    54010    7500      0    1.61e+00    0    1.12e+00
2006 10 02  0210    54010    7800      0    1.63e+00    0    1.14e+00
2006 10 02  0215    54010    8100      0    1.63e+00    0    1.14e+00
2006 10 02  0220    54010    8400      0    1.65e+00    0    1.17e+00
2006 10 02  0225    54010    8700      0    1.65e+00    0    1.14e+00
2006 10 02  0230    54010    9000      0    1.65e+00    0    1.16e+00
2006 10 02  0235    54010    9300      0    1.62e+00    0    1.13e+00
2006 10 02  0240    54010    9600      0    1.61e+00    0    1.13e+00
2006 10 02  0245    54010    9900      0    1.59e+00    0    1.11e+00
2006 10 02  0250    54010   10200      0    1.65e+00    0    1.16e+00
2006 10 02  0255    54010   10500      0    1.60e+00    0    1.12e+00
2006 10 02  0300    54010   10800      0    1.62e+00    0    1.14e+00
2006 10 02  0305    54010   11100      0    1.62e+00    0    1.13e+00
2006 10 02  0310    54010   11400      0    1.69e+00    0    1.20e+00
2006 10 02  0315    54010   11700      0    1.64e+00    0    1.15e+00
2006 10 02  0320    54010   12000      0    1.63e+00    0    1.15e+00
2006 10 02  0325    54010   12300      0    1.63e+00    0    1.15e+00
2006 10 02  0330    54010   12600      0    1.64e+00    0    1.15e+00
2006 10 02  0335    54010   12900      0    1.64e+00    0    1.15e+00
2006 10 02  0340    54010   13200      0    1.61e+00    0    1.13e+00
2006 10 02  0345    54010   13500      0    1.59e+00    0    1.10e+00
2006 10 02  0350    54010   13800      0    1.64e+00    0    1.15e+00
2006 10 02  0355    54010   14100      0    1.63e+00    0    1.14e+00
2006 10 02  0400    54010   14400      0    1.65e+00    0    1.16e+00
2006 10 02  0405    54010   14700      0    1.65e+00    0    1.15e+00
2006 10 02  0410    54010   15000      0    1.66e+00    0    1.15e+00
2006 10 02  0415    54010   15300      0    1.60e+00    0    1.13e+00
2006 10 02  0420    54010   15600      0    1.59e+00    0    1.12e+00
2006 10 02  0425    54010   15900      0    1.59e+00    0    1.11e+00
2006 10 02  0430    54010   16200      0    1.65e+00    0    1.16e+00
2006 10 02  0435    54010   16500      0    1.61e+00    0    1.13e+00
2006 10 02  0440    54010   16800      0    1.61e+00    0    1.13e+00
2006 10 02  0445    54010   17100      0    1.64e+00    0    1.15e+00
2006 10 02  0450    54010   17400      0    1.60e+00    0    1.13e+00
2006 10 02  0455    54010   17700      0    1.50e+00    0    1.05e+00
2006 10 02  0500    54010   18000      0    1.60e+00    0    1.12e+00
2006 10 02  0505    54010   18300      0    1.60e+00    0    1.11e+00
2006 10 02  0510    54010   18600      0    1.62e+00    0    1.15e+00
2006 10 02  0515    54010   18900      0    1.63e+00    0    1.14e+00
2006 10 02  0520    54010   19200      0    1.63e+00    0    1.15e+00
2006 10 02  0525    54010   19500      0    1.59e+00    0    1.10e+00
2006 10 02  0530    54010   19800      0    1.60e+00    0    1.13e+00
2006 10 02  0535    54010   20100      0    1.63e+00    0    1.14e+00
2006 10 02  0540    54010   20400      0    1.59e+00    0    1.11e+00
2006 10 02  0545    54010   20700      0    1.62e+00    0    1.13e+00
2006 10 02  0550    54010   21000      0    1.63e+00    0    1.15e+00
2006 10 02  0555    54010   21300      0    1.64e+00    0    1.14e+00
2006 10 02  0600    54010   21600      0    1.57e+00    0    1.11e+00
2006 10 02  0605    54010   21900      0    1.63e+00    0    1.15e+00
2006 10 02  0610    54010   22200      0    1.62e+00    0    1.13e+00
2006 10 02  0615    54010   22500      0    1.59e+00    0    1.11e+00
2006 10 02  0620    54010   22800      0    1.57e+00    0    1.11e+00
2006 10 02  0625    54010   23100      0    1.61e+00    0    1.12e+00
2006 10 02  0630    54010   23400      0    1.61e+00    0    1.12e+00
2006 10 02  0635    54010   23700      0    1.60e+00    0    1.12e+00
2006 10 02  0640    54010   24000      0    1.61e+00    0    1.14e+00
2006 10 02  0645    54010   24300      0    1.68e+00    0    1.16e+00
2006 10 02  0650    54010   24600      0    1.63e+00    0    1.14e+00
2006 10 02  0655    54010   24900      0    1.60e+00    0    1.13e+00
2006 10 02  0700    54010   25200      0    1.61e+00    0    1.13e+00
2006 10 02  0705    54010   25500      0    1.63e+00    0    1.15e+00
2006 10 02  0710    54010   25800      0    1.62e+00    0    1.14e+00
2006 10 02  0715    54010   26100      0    1.62e+00    0    1.13e+00
2006 10 02  0720    54010   26400      0    1.66e+00    0    1.15e+00
2006 10 02  0725    54010   26700      0    1.63e+00    0    1.14e+00
2006 10 02  0730    54010   27000      0    1.60e+00    0    1.12e+00
2006 10 02  0735    54010   27300      0    1.60e+00    0    1.11e+00
2006 10 02  0740    54010   27600      0    1.64e+00    0    1.15e+00
2006 10 02  0745    54010   27900      0    1.59e+00    0    1.09e+00
2006 10 02  0750    54010   28200      0    1.63e+00    0    1.15e+00
2006 10 02  0755    54010   28500      0    1.63e+00    0    1.15e+00
2006 10 02  0800    54010   28800      0    1.64e+00    0    1.14e+00
2006 10 02  0805    54010   29100      0    1.61e+00    0    1.13e+00
2006 10 02  0810    54010   29400      0    1.64e+00    0    1.15e+00
2006 10 02  0815    54010   29700      0    1.61e+00    0    1.12e+00
2006 10 02  0820    54010   30000      0    1.62e+00    0    1.13e+00
2006 10 02  0825    54010   30300      0    1.66e+00    0    1.16e+00
2006 10 02  0830    54010   30600      0    1.62e+00    0    1.14e+00
2006 10 02  0835    54010   30900      0    1.64e+00    0    1.16e+00
2006 10 02  0840    54010   31200      0    1.61e+00    0    1.12e+00
2006 10 02  0845    54010   31500      0    1.64e+00    0    1.16e+00
2006 10 02  0850    54010   31800      0    1.62e+00    0    1.13e+00
2006 10 02  0855    54010   32100      0    1.62e+00    0    1.15e+00
2006 10 02  0900    54010   32400      0    1.61e+00    0    1.13e+00
2006 10 02  0905    54010   32700      0    1.64e+00    0    1.15e+00
2006 10 02  0910    54010   33000      0    1.64e+00    0    1.15e+00
2006 10 02  0915    54010   33300      0    1.61e+00    0    1.13e+00
2006 10 02  0920    54010   33600      0    1.65e+00    0    1.15e+00
2006 10 02  0925    54010   33900      0    1.60e+00    0    1.12e+00
2006 10 02  0930    54010   34200      0    1.67e+00    0    1.17e+00
2006 10 02  0935    54010   34500      0    1.62e+00    0    1.12e+00
2006 10 02  0940    54010   34800      0    1.66e+00    0    1.16e+00
2006 10 02  0945    54010   35100      0    1.64e+00    0    1.15e+00
2006 10 02  0950    54010   35400      0    1.62e+00    0    1.13e+00
2006 10 02  0955    54010   35700      0    1.62e+00    0    1.14e+00
2006 10 02  1000    54010   36000      0    1.64e+00    0    1.15e+00
2006 10 02  1005    54010   36300      0    1.62e+00    0    1.14e+00
2006 10 02  1010    54010   36600      0    1.66e+00    0    1.16e+00
2006 10 02  1015    54010   36900      0    1.67e+00    0    1.18e+00
2006 10 02  1020    54010   37200      0    1.64e+00    0    1.14e+00
2006 10 02  1025    54010   37500      0    1.66e+00    0    1.16e+00
2006 10 02  1030    54010   37800      0    1.63e+00    0    1.14e+00
2006 10 02  1035    54010   38100      0    1.62e+00    0    1.14e+00
2006 10 02  1040    54010   38400      0    1.65e+00    0    1.17e+00
2006 10 02  1045    54010   38700      0    1.65e+00    0    1.17e+00
2006 10 02  1050    54010   39000      0    1.58e+00    0    1.10e+00
2006 10 02  1055    54010   39300      0    1.62e+00    0    1.14e+00
2006 10 02  1100    54010   39600      0    1.60e+00    0    1.11e+00
2006 10 02  1105    54010   39900      0    1.65e+00    0    1.16e+00
2006 10 02  1110    54010   40200      0    1.62e+00    0    1.15e+00
2006 10 02  1115    54010   40500      0    1.63e+00    0    1.15e+00
2006 10 02  1120    54010   40800      0    1.59e+00    0    1.11e+00
2006 10 02  1125    54010   41100      0    1.64e+00    0    1.15e+00
2006 10 02  1130    54010   41400      0    1.63e+00    0    1.14e+00
2006 10 02  1135    54010   41700      0    1.61e+00    0    1.14e+00
2006 10 02  1140    54010   42000      0    1.64e+00    0    1.15e+00
2006 10 02  1145    54010   42300      0    1.62e+00    0    1.15e+00
2006 10 02  1150    54010   42600      0    1.65e+00    0    1.15e+00
2006 10 02  1155    54010   42900      0    1.60e+00    0    1.13e+00
2006 10 02  1200    54010   43200      0    1.63e+00    0    1.14e+00
2006 10 02  1205    54010   43500      0    1.64e+00    0    1.16e+00
2006 10 02  1210    54010   43800      0    1.63e+00    0    1.15e+00
2006 10 02  1215    54010   44100      0    1.63e+00    0    1.14e+00
2006 10 02  1220    54010   44400      0    1.64e+00    0    1.15e+00
2006 10 02  1225    54010   44700      0    1.64e+00    0    1.15e+00
2006 10 02  1230    54010   45000      0    1.64e+00    0    1.14e+00
2006 10 02  1235    54010   45300      0    1.60e+00    0    1.13e+00
2006 10 02  1240    54010   45600      0    1.65e+00    0    1.15e+00
2006 10 02  1245    54010   45900      0    1.64e+00    0    1.15e+00
2006 10 02  1250    54010   46200      0    1.59e+00    0    1.11e+00
2006 10 02  1255    54010   46500      0    1.64e+00    0    1.14e+00
2006 10 02  1300    54010   46800      0    1.66e+00    0    1.16e+00
2006 10 02  1305    54010   47100      0    1.61e+00    0    1.13e+00
2006 10 02  1310    54010   47400      0    1.62e+00    0    1.14e+00
2006 10 02  1315    54010   47700      0    1.65e+00    0    1.16e+00
2006 10 02  1320    54010   48000      0    1.74e+00    0    1.26e+00
2006 10 02  1325    54010   48300      0    1.63e+00    0    1.15e+00
2006 10 02  1330    54010   48600      0    1.67e+00    0    1.17e+00
2006 10 02  1335    54010   48900      0    1.66e+00    0    1.17e+00
2006 10 02  1340    54010   49200      0    1.60e+00    0    1.11e+00
2006 10 02  1345    54010   49500      0    1.64e+00    0    1.15e+00
2006 10 02  1350    54010   49800      0    1.65e+00    0    1.16e+00
2006 10 02  1355    54010   50100      0    1.65e+00    0    1.16e+00
2006 10 02  1400    54010   50400      0    1.63e+00    0    1.13e+00
2006 10 02  1405    54010   50700      0    1.63e+00    0    1.14e+00
2006 10 02  1410    54010   51000      0    1.60e+00    0    1.12e+00
2006 10 02  1415    54010   51300      0    1.62e+00    0    1.13e+00
2006 10 02  1420    54010   51600      0    1.66e+00    0    1.16e+00
2006 10 02  1425    54010   51900      0    1.66e+00    0    1.17e+00
2006 10 02  1430    54010   52200      0    1.61e+00    0    1.13e+00
2006 10 02  1435    54010   52500      0    1.65e+00    0    1.18e+00
2006 10 02  1440    54010   52800      0    1.64e+00    0    1.15e+00
2006 10 02  1445    54010   53100      0    1.72e+00    0    1.23e+00
2006 10 02  1450    54010   53400      0    1.64e+00    0    1.16e+00
2006 10 02  1455    54010   53700      0    1.62e+00    0    1.13e+00
2006 10 02  1500    54010   54000      0    1.64e+00    0    1.15e+00
2006 10 02  1505    54010   54300      0    1.65e+00    0    1.14e+00
2006 10 02  1510    54010   54600      0    1.65e+00    0    1.16e+00
2006 10 02  1515    54010   54900      0    1.64e+00    0    1.16e+00
2006 10 02  1520    54010   55200      0    1.68e+00    0    1.17e+00
2006 10 02  1525    54010   55500      0    1.65e+00    0    1.15e+00
2006 10 02  1530    54010   55800      0    1.63e+00    0    1.15e+00
2006 10 02  1535    54010   56100      0    1.62e+00    0    1.14e+00
2006 10 02  1540    54010   56400      0    1.64e+00    0    1.13e+00
2006 10 02  1545    54010   56700      0    1.64e+00    0    1.14e+00
2006 10 02  1550    54010   57000      0    1.63e+00    0    1.13e+00
2006 10 02  1555    54010   57300      0    1.63e+00    0    1.16e+00
2006 10 02  1600    54010   57600      0    1.65e+00    0    1.16e+00
2006 10 02  1605    54010   57900      0    1.65e+00    0    1.16e+00
2006 10 02  1610    54010   58200      0    1.61e+00    0    1.12e+00
2006 10 02  1615    54010   58500      0    1.61e+00    0    1.13e+00
2006 10 02  1620    54010   58800      0    1.67e+00    0    1.17e+00
2006 10 02  1625    54010   59100      0    1.65e+00    0    1.16e+00
2006 10 02  1630    54010   59400      0    1.65e+00    0    1.16e+00
2006 10 02  1635    54010   59700      0    1.63e+00    0    1.15e+00
2006 10 02  1640    54010   60000      0    1.65e+00    0    1.16e+00
2006 10 02  1645    54010   60300      0    1.61e+00    0    1.12e+00
2006 10 02  1650    54010   60600      0    1.66e+00    0    1.17e+00
2006 10 02  1655    54010   60900      0    1.66e+00    0    1.16e+00
2006 10 02  1700    54010   61200      0    1.64e+00    0    1.16e+00
2006 10 02  1705    54010   61500      0    1.65e+00    0    1.15e+00
2006 10 02  1710    54010   61800      0    1.64e+00    0    1.15e+00
2006 10 02  1715    54010   62100      0    1.67e+00    0    1.17e+00
2006 10 02  1720    54010   62400      0    1.66e+00    0    1.17e+00
2006 10 02  1725    54010   62700      0    1.65e+00    0    1.15e+00
2006 10 02  1730    54010   63000      0    1.65e+00    0    1.16e+00
2006 10 02  1735    54010   63300      0    1.61e+00    0    1.14e+00
2006 10 02  1740    54010   63600      0    1.60e+00    0    1.11e+00
2006 10 02  1745    54010   63900      0    1.63e+00    0    1.13e+00
2006 10 02  1750    54010   64200      0    1.63e+00    0    1.13e+00
2006 10 02  1755    54010   64500      0    1.65e+00    0    1.16e+00
2006 10 02  1800    54010   64800      0    1.63e+00    0    1.15e+00
2006 10 02  1805    54010   65100      0    1.68e+00    0    1.17e+00
2006 10 02  1810    54010   65400      0    1.66e+00    0    1.15e+00
2006 10 02  1815    54010   65700      0    1.68e+00    0    1.19e+00
2006 10 02  1820    54010   66000      0    1.64e+00    0    1.15e+00
2006 10 02  1825    54010   66300      0    1.67e+00    0    1.17e+00
2006 10 02  1830    54010   66600      0    1.66e+00    0    1.16e+00
2006 10 02  1835    54010   66900      0    1.65e+00    0    1.16e+00
2006 10 02  1840    54010   67200      0    1.71e+00    0    1.19e+00
2006 10 02  1845    54010   67500      0    1.63e+00    0    1.14e+00
2006 10 02  1850    54010   67800      0    1.67e+00    0    1.17e+00
2006 10 02  1855    54010   68100      0    1.66e+00    0    1.16e+00
2006 10 02  1900    54010   68400      0    1.66e+00    0    1.17e+00
2006 10 02  1905    54010   68700      0    1.64e+00    0    1.14e+00
2006 10 02  1910    54010   69000      0    1.64e+00    0    1.14e+00
2006 10 02  1915    54010   69300      0    1.69e+00    0    1.19e+00
2006 10 02  1920    54010   69600      0    1.66e+00    0    1.17e+00
2006 10 02  1925    54010   69900      0    1.66e+00    0    1.16e+00
2006 10 02  1930    54010   70200      0    1.68e+00    0    1.16e+00
2006 10 02  1935    54010   70500      0    1.67e+00    0    1.18e+00
2006 10 02  1940    54010   70800      0    1.67e+00    0    1.16e+00
2006 10 02  1945    54010   71100      0    1.66e+00    0    1.17e+00
2006 10 02  1950    54010   71400      0    1.71e+00    0    1.21e+00
2006 10 02  1955    54010   71700      0    1.65e+00    0    1.17e+00
2006 10 02  2000    54010   72000      0    1.68e+00    0    1.17e+00
2006 10 02  2005    54010   72300      0    1.65e+00    0    1.15e+00
2006 10 02  2010    54010   72600      0    1.66e+00    0    1.16e+00
2006 10 02  2015    54010   72900      0    1.66e+00    0    1.16e+00
2006 10 02  2020    54010   73200      0    1.65e+00    0    1.16e+00
2006 10 02  2025    54010   73500      0    1.66e+00    0    1.16e+00
2006 10 02  2030    54010   73800      0    1.67e+00    0    1.16e+00
2006 10 02  2035    54010   74100      0    1.65e+00    0    1.15e+00
2006 10 02  2040    54010   74400      0    1.64e+00    0    1.13e+00
2006 10 02  2045    54010   74700      0    1.63e+00    0    1.14e+00
2006 10 02  2050    54010   75000      0    1.62e+00    0    1.12e+00
2006 10 02  2055    54010   75300      0    1.69e+00    0    1.18e+00
2006 10 02  2100    54010   75600      0    1.63e+00    0    1.13e+00
2006 10 02  2105    54010   75900      0    1.68e+00    0    1.17e+00
2006 10 02  2110    54010   76200      0    1.69e+00    0    1.18e+00
2006 10 02  2115    54010   76500      0    1.63e+00    0    1.13e+00
2006 10 02  2120    54010   76800      0    1.66e+00    0    1.15e+00
2006 10 02  2125    54010   77100      0    1.67e+00    0    1.15e+00
2006 10 02  2130    54010   77400      0    1.62e+00    0    1.15e+00
2006 10 02  2135    54010   77700      0    1.68e+00    0    1.18e+00
2006 10 02  2140    54010   78000      0    1.70e+00    0    1.19e+00
2006 10 02  2145    54010   78300      0    1.66e+00    0    1.17e+00
2006 10 02  2150    54010   78600      0    1.65e+00    0    1.16e+00
2006 10 02  2155    54010   78900      0    1.67e+00    0    1.18e+00
2006 10 02  2200    54010   79200      0    1.65e+00    0    1.16e+00
2006 10 02  2205    54010   79500      0    1.68e+00    0    1.16e+00
2006 10 02  2210    54010   79800      9   -1.00e+05    9   -1.00e+05
2006 10 02  2215    54010   80100      9   -1.00e+05    9   -1.00e+05
2006 10 02  2220    54010   80400      9   -1.00e+05    9   -1.00e+05
2006 10 02  2225    54010   80700      9   -1.00e+05    9   -1.00e+05
2006 10 02  2230    54010   81000      9   -1.00e+05    9   -1.00e+05
2006 10 02  2235    54010   81300      9   -1.00e+05    9   -1.00e+05
2006 10 02  2240    54010   81600      9   -1.00e+05    9   -1.00e+05
2006 10 02  2245    54010   81900      0    1.68e+00    0    1.19e+00
2006 10 02  2250    54010   82200      0    1.70e+00    0    1.19e+00
2006 10 02  2255    54010   82500      0    1.65e+00    0    1.16e+00
2006 10 02  2300    54010   82800      0    1.67e+00    0    1.17e+00
2006 10 02  2305    54010   83100      0    1.67e+00    0    1.16e+00
2006 10 02  2310    54010   83400      0    1.65e+00    0    1.15e+00
2006 10 02  2315    54010   83700      0    1.64e+00    0    1.15e+00
2006 10 02  2320    54010   84000      0    1.67e+00    0    1.17e+00
2006 10 02  2325    54010   84300      0    1.64e+00    0    1.15e+00
2006 10 02  2330    54010   84600      0    1.65e+00    0    1.15e+00
2006 10 02  2335    54010   84900      0    1.64e+00    0    1.14e+00
2006 10 02  2340    54010   85200      0    1.65e+00    0    1.15e+00
2006 10 02  2345    54010   85500      0    1.67e+00    0    1.16e+00
2006 10 02  2350    54010   85800      0    1.65e+00    0    1.16e+00
2006 10 02  2355    54010   86100      0    1.67e+00    0    1.18e+00
