:Data_list: 20060202_ace_sis_5m.txt
:Created: 2006 Feb 03 0011 UT
# Prepared by the U.S. Dept. of Commerce, NOAA, Space Environment Center.
# Please send comments and suggestions to SEC.Webmaster@noaa.gov 
# 
# Units: proton flux p/cs2-sec-ster
# Status(S): 0 = nominal data, 1 to 8 = bad data record, 9 = no data
# Missing data values: -1.00e+05
# Source: ACE Satellite - Solar Isotope Spectrometer
#
# 5-minute averaged Real-time Integral Flux of High-energy Solar Protons
# 
#                 Modified Seconds
# UT Date   Time   Julian  of the      ---- Integral Proton Flux ----
# YR MO DA  HHMM     Day     Day       S    > 10 MeV    S    > 30 MeV
#--------------------------------------------------------------------
2006 02 02  0000    53768       0      0    1.49e+00    0    1.05e+00
2006 02 02  0005    53768     300      0    1.46e+00    0    1.03e+00
2006 02 02  0010    53768     600      0    1.46e+00    0    1.03e+00
2006 02 02  0015    53768     900      0    1.45e+00    0    1.02e+00
2006 02 02  0020    53768    1200      0    1.45e+00    0    1.00e+00
2006 02 02  0025    53768    1500      0    1.47e+00    0    1.04e+00
2006 02 02  0030    53768    1800      0    1.47e+00    0    1.03e+00
2006 02 02  0035    53768    2100      0    1.45e+00    0    1.03e+00
2006 02 02  0040    53768    2400      0    1.50e+00    0    1.05e+00
2006 02 02  0045    53768    2700      0    1.47e+00    0    1.03e+00
2006 02 02  0050    53768    3000      0    1.44e+00    0    9.98e-01
2006 02 02  0055    53768    3300      0    1.45e+00    0    1.02e+00
2006 02 02  0100    53768    3600      0    1.48e+00    0    1.03e+00
2006 02 02  0105    53768    3900      0    1.45e+00    0    1.01e+00
2006 02 02  0110    53768    4200      0    1.39e+00    0    9.81e-01
2006 02 02  0115    53768    4500      0    1.39e+00    0    9.75e-01
2006 02 02  0120    53768    4800      0    1.45e+00    0    1.02e+00
2006 02 02  0125    53768    5100      0    1.47e+00    0    1.03e+00
2006 02 02  0130    53768    5400      0    1.46e+00    0    1.02e+00
2006 02 02  0135    53768    5700      0    1.48e+00    0    1.04e+00
2006 02 02  0140    53768    6000      0    1.48e+00    0    1.04e+00
2006 02 02  0145    53768    6300      0    1.49e+00    0    1.04e+00
2006 02 02  0150    53768    6600      0    1.45e+00    0    1.02e+00
2006 02 02  0155    53768    6900      0    1.48e+00    0    1.04e+00
2006 02 02  0200    53768    7200      0    1.51e+00    0    1.08e+00
2006 02 02  0205    53768    7500      0    1.43e+00    0    9.92e-01
2006 02 02  0210    53768    7800      0    1.48e+00    0    1.04e+00
2006 02 02  0215    53768    8100      0    1.45e+00    0    1.03e+00
2006 02 02  0220    53768    8400      0    1.44e+00    0    1.02e+00
2006 02 02  0225    53768    8700      0    1.45e+00    0    1.01e+00
2006 02 02  0230    53768    9000      0    1.49e+00    0    1.04e+00
2006 02 02  0235    53768    9300      0    1.48e+00    0    1.03e+00
2006 02 02  0240    53768    9600      0    1.45e+00    0    1.02e+00
2006 02 02  0245    53768    9900      0    1.49e+00    0    1.03e+00
2006 02 02  0250    53768   10200      0    1.49e+00    0    1.04e+00
2006 02 02  0255    53768   10500      0    1.50e+00    0    1.06e+00
2006 02 02  0300    53768   10800      0    1.48e+00    0    1.04e+00
2006 02 02  0305    53768   11100      0    1.44e+00    0    1.01e+00
2006 02 02  0310    53768   11400      0    1.46e+00    0    1.02e+00
2006 02 02  0315    53768   11700      0    1.44e+00    0    1.01e+00
2006 02 02  0320    53768   12000      0    1.45e+00    0    1.01e+00
2006 02 02  0325    53768   12300      0    1.45e+00    0    9.95e-01
2006 02 02  0330    53768   12600      0    1.47e+00    0    1.03e+00
2006 02 02  0335    53768   12900      0    1.51e+00    0    1.05e+00
2006 02 02  0340    53768   13200      0    1.43e+00    0    1.00e+00
2006 02 02  0345    53768   13500      0    1.47e+00    0    1.04e+00
2006 02 02  0350    53768   13800      0    1.45e+00    0    1.02e+00
2006 02 02  0355    53768   14100      0    1.45e+00    0    1.02e+00
2006 02 02  0400    53768   14400      0    1.43e+00    0    9.92e-01
2006 02 02  0405    53768   14700      0    1.47e+00    0    1.02e+00
2006 02 02  0410    53768   15000      0    1.44e+00    0    1.01e+00
2006 02 02  0415    53768   15300      0    1.47e+00    0    1.03e+00
2006 02 02  0420    53768   15600      0    1.49e+00    0    1.04e+00
2006 02 02  0425    53768   15900      0    1.49e+00    0    1.06e+00
2006 02 02  0430    53768   16200      0    1.47e+00    0    1.04e+00
2006 02 02  0435    53768   16500      0    1.45e+00    0    1.02e+00
2006 02 02  0440    53768   16800      0    1.47e+00    0    1.03e+00
2006 02 02  0445    53768   17100      0    1.47e+00    0    1.03e+00
2006 02 02  0450    53768   17400      0    1.45e+00    0    1.03e+00
2006 02 02  0455    53768   17700      0    1.44e+00    0    1.02e+00
2006 02 02  0500    53768   18000      0    1.45e+00    0    1.02e+00
2006 02 02  0505    53768   18300      0    1.46e+00    0    1.03e+00
2006 02 02  0510    53768   18600      0    1.46e+00    0    1.03e+00
2006 02 02  0515    53768   18900      0    1.43e+00    0    1.00e+00
2006 02 02  0520    53768   19200      0    1.45e+00    0    1.01e+00
2006 02 02  0525    53768   19500      0    1.49e+00    0    1.05e+00
2006 02 02  0530    53768   19800      0    1.47e+00    0    1.02e+00
2006 02 02  0535    53768   20100      0    1.46e+00    0    1.03e+00
2006 02 02  0540    53768   20400      0    1.46e+00    0    1.03e+00
2006 02 02  0545    53768   20700      0    1.43e+00    0    9.97e-01
2006 02 02  0550    53768   21000      0    1.43e+00    0    9.93e-01
2006 02 02  0555    53768   21300      0    1.43e+00    0    9.96e-01
2006 02 02  0600    53768   21600      0    1.37e+00    0    9.56e-01
2006 02 02  0605    53768   21900      0    1.47e+00    0    1.04e+00
2006 02 02  0610    53768   22200      0    1.46e+00    0    1.02e+00
2006 02 02  0615    53768   22500      0    1.45e+00    0    1.01e+00
2006 02 02  0620    53768   22800      0    1.43e+00    0    1.01e+00
2006 02 02  0625    53768   23100      0    1.45e+00    0    1.01e+00
2006 02 02  0630    53768   23400      0    1.46e+00    0    1.03e+00
2006 02 02  0635    53768   23700      0    1.46e+00    0    1.03e+00
2006 02 02  0640    53768   24000      0    1.47e+00    0    1.03e+00
2006 02 02  0645    53768   24300      0    1.47e+00    0    1.03e+00
2006 02 02  0650    53768   24600      0    1.50e+00    0    1.05e+00
2006 02 02  0655    53768   24900      0    1.45e+00    0    1.01e+00
2006 02 02  0700    53768   25200      0    1.48e+00    0    1.03e+00
2006 02 02  0705    53768   25500      0    1.46e+00    0    1.02e+00
2006 02 02  0710    53768   25800      0    1.49e+00    0    1.05e+00
2006 02 02  0715    53768   26100      0    1.45e+00    0    1.02e+00
2006 02 02  0720    53768   26400      0    1.47e+00    0    1.03e+00
2006 02 02  0725    53768   26700      0    1.50e+00    0    1.04e+00
2006 02 02  0730    53768   27000      0    1.48e+00    0    1.03e+00
2006 02 02  0735    53768   27300      0    1.46e+00    0    1.02e+00
2006 02 02  0740    53768   27600      0    1.42e+00    0    9.97e-01
2006 02 02  0745    53768   27900      0    1.46e+00    0    1.02e+00
2006 02 02  0750    53768   28200      0    1.50e+00    0    1.06e+00
2006 02 02  0755    53768   28500      0    1.47e+00    0    1.04e+00
2006 02 02  0800    53768   28800      0    1.45e+00    0    1.01e+00
2006 02 02  0805    53768   29100      0    1.45e+00    0    1.03e+00
2006 02 02  0810    53768   29400      0    1.44e+00    0    1.02e+00
2006 02 02  0815    53768   29700      0    1.47e+00    0    1.03e+00
2006 02 02  0820    53768   30000      0    1.44e+00    0    1.02e+00
2006 02 02  0825    53768   30300      0    1.50e+00    0    1.05e+00
2006 02 02  0830    53768   30600      0    1.47e+00    0    1.03e+00
2006 02 02  0835    53768   30900      0    1.49e+00    0    1.04e+00
2006 02 02  0840    53768   31200      0    1.48e+00    0    1.03e+00
2006 02 02  0845    53768   31500      0    1.47e+00    0    1.03e+00
2006 02 02  0850    53768   31800      0    1.48e+00    0    1.03e+00
2006 02 02  0855    53768   32100      0    1.48e+00    0    1.04e+00
2006 02 02  0900    53768   32400      0    1.43e+00    0    9.97e-01
2006 02 02  0905    53768   32700      0    1.46e+00    0    1.02e+00
2006 02 02  0910    53768   33000      0    1.44e+00    0    1.01e+00
2006 02 02  0915    53768   33300      0    1.46e+00    0    1.01e+00
2006 02 02  0920    53768   33600      0    1.47e+00    0    1.04e+00
2006 02 02  0925    53768   33900      0    1.47e+00    0    1.04e+00
2006 02 02  0930    53768   34200      0    1.48e+00    0    1.06e+00
2006 02 02  0935    53768   34500      0    1.45e+00    0    1.02e+00
2006 02 02  0940    53768   34800      0    1.47e+00    0    1.04e+00
2006 02 02  0945    53768   35100      0    1.45e+00    0    1.03e+00
2006 02 02  0950    53768   35400      0    1.46e+00    0    1.02e+00
2006 02 02  0955    53768   35700      0    1.46e+00    0    1.02e+00
2006 02 02  1000    53768   36000      0    1.46e+00    0    1.01e+00
2006 02 02  1005    53768   36300      0    1.45e+00    0    1.02e+00
2006 02 02  1010    53768   36600      0    1.50e+00    0    1.05e+00
2006 02 02  1015    53768   36900      0    1.46e+00    0    1.03e+00
2006 02 02  1020    53768   37200      0    1.47e+00    0    1.03e+00
2006 02 02  1025    53768   37500      0    1.45e+00    0    1.03e+00
2006 02 02  1030    53768   37800      0    1.45e+00    0    1.01e+00
2006 02 02  1035    53768   38100      0    1.45e+00    0    1.01e+00
2006 02 02  1040    53768   38400      0    1.49e+00    0    1.04e+00
2006 02 02  1045    53768   38700      0    1.47e+00    0    1.03e+00
2006 02 02  1050    53768   39000      0    1.44e+00    0    9.89e-01
2006 02 02  1055    53768   39300      0    1.45e+00    0    1.01e+00
2006 02 02  1100    53768   39600      0    1.44e+00    0    1.02e+00
2006 02 02  1105    53768   39900      0    1.44e+00    0    1.00e+00
2006 02 02  1110    53768   40200      0    1.48e+00    0    1.03e+00
2006 02 02  1115    53768   40500      0    1.42e+00    0    9.98e-01
2006 02 02  1120    53768   40800      0    1.40e+00    0    9.83e-01
2006 02 02  1125    53768   41100      0    1.43e+00    0    1.00e+00
2006 02 02  1130    53768   41400      0    1.43e+00    0    1.00e+00
2006 02 02  1135    53768   41700      0    1.47e+00    0    1.02e+00
2006 02 02  1140    53768   42000      0    1.45e+00    0    1.03e+00
2006 02 02  1145    53768   42300      0    1.44e+00    0    1.02e+00
2006 02 02  1150    53768   42600      0    1.43e+00    0    1.00e+00
2006 02 02  1155    53768   42900      0    1.45e+00    0    1.01e+00
2006 02 02  1200    53768   43200      0    1.41e+00    0    9.96e-01
2006 02 02  1205    53768   43500      0    1.45e+00    0    1.03e+00
2006 02 02  1210    53768   43800      0    1.48e+00    0    1.04e+00
2006 02 02  1215    53768   44100      0    1.45e+00    0    1.01e+00
2006 02 02  1220    53768   44400      0    1.43e+00    0    1.00e+00
2006 02 02  1225    53768   44700      0    1.45e+00    0    1.02e+00
2006 02 02  1230    53768   45000      0    1.43e+00    0    1.00e+00
2006 02 02  1235    53768   45300      0    1.41e+00    0    9.92e-01
2006 02 02  1240    53768   45600      0    1.43e+00    0    1.00e+00
2006 02 02  1245    53768   45900      0    1.42e+00    0    9.94e-01
2006 02 02  1250    53768   46200      0    1.45e+00    0    1.02e+00
2006 02 02  1255    53768   46500      0    1.42e+00    0    9.98e-01
2006 02 02  1300    53768   46800      0    1.42e+00    0    1.00e+00
2006 02 02  1305    53768   47100      0    1.43e+00    0    9.99e-01
2006 02 02  1310    53768   47400      0    1.45e+00    0    1.02e+00
2006 02 02  1315    53768   47700      0    1.48e+00    0    1.04e+00
2006 02 02  1320    53768   48000      0    1.45e+00    0    1.01e+00
2006 02 02  1325    53768   48300      0    1.43e+00    0    1.01e+00
2006 02 02  1330    53768   48600      0    1.46e+00    0    1.03e+00
2006 02 02  1335    53768   48900      0    1.44e+00    0    1.02e+00
2006 02 02  1340    53768   49200      0    1.44e+00    0    1.02e+00
2006 02 02  1345    53768   49500      0    1.45e+00    0    1.02e+00
2006 02 02  1350    53768   49800      0    1.43e+00    0    1.00e+00
2006 02 02  1355    53768   50100      0    1.44e+00    0    1.00e+00
2006 02 02  1400    53768   50400      0    1.44e+00    0    1.01e+00
2006 02 02  1405    53768   50700      0    1.43e+00    0    1.00e+00
2006 02 02  1410    53768   51000      0    1.43e+00    0    9.98e-01
2006 02 02  1415    53768   51300      0    1.40e+00    0    9.86e-01
2006 02 02  1420    53768   51600      0    1.43e+00    0    1.00e+00
2006 02 02  1425    53768   51900      0    1.46e+00    0    1.03e+00
2006 02 02  1430    53768   52200      0    1.45e+00    0    1.02e+00
2006 02 02  1435    53768   52500      0    1.47e+00    0    1.04e+00
2006 02 02  1440    53768   52800      0    1.44e+00    0    1.02e+00
2006 02 02  1445    53768   53100      0    1.45e+00    0    1.03e+00
2006 02 02  1450    53768   53400      0    1.45e+00    0    1.02e+00
2006 02 02  1455    53768   53700      0    1.46e+00    0    1.02e+00
2006 02 02  1500    53768   54000      0    1.43e+00    0    1.00e+00
2006 02 02  1505    53768   54300      0    1.44e+00    0    1.01e+00
2006 02 02  1510    53768   54600      0    1.41e+00    0    9.91e-01
2006 02 02  1515    53768   54900      0    1.43e+00    0    9.97e-01
2006 02 02  1520    53768   55200      0    1.43e+00    0    1.01e+00
2006 02 02  1525    53768   55500      0    1.44e+00    0    1.01e+00
2006 02 02  1530    53768   55800      0    1.46e+00    0    1.03e+00
2006 02 02  1535    53768   56100      0    1.44e+00    0    1.01e+00
2006 02 02  1540    53768   56400      0    1.47e+00    0    1.04e+00
2006 02 02  1545    53768   56700      0    1.43e+00    0    1.01e+00
2006 02 02  1550    53768   57000      0    1.44e+00    0    1.02e+00
2006 02 02  1555    53768   57300      0    1.42e+00    0    1.00e+00
2006 02 02  1600    53768   57600      0    1.46e+00    0    1.02e+00
2006 02 02  1605    53768   57900      0    1.42e+00    0    9.87e-01
2006 02 02  1610    53768   58200      0    1.35e+00    0    9.52e-01
2006 02 02  1615    53768   58500      0    1.43e+00    0    1.01e+00
2006 02 02  1620    53768   58800      0    1.42e+00    0    9.97e-01
2006 02 02  1625    53768   59100      0    1.44e+00    0    1.01e+00
2006 02 02  1630    53768   59400      0    1.43e+00    0    9.97e-01
2006 02 02  1635    53768   59700      0    1.44e+00    0    1.02e+00
2006 02 02  1640    53768   60000      0    1.47e+00    0    1.04e+00
2006 02 02  1645    53768   60300      0    1.48e+00    0    1.04e+00
2006 02 02  1650    53768   60600      0    1.44e+00    0    1.01e+00
2006 02 02  1655    53768   60900      0    1.45e+00    0    1.02e+00
2006 02 02  1700    53768   61200      0    1.43e+00    0    9.91e-01
2006 02 02  1705    53768   61500      0    1.47e+00    0    1.03e+00
2006 02 02  1710    53768   61800      0    1.41e+00    0    9.92e-01
2006 02 02  1715    53768   62100      0    1.43e+00    0    1.01e+00
2006 02 02  1720    53768   62400      0    1.47e+00    0    1.03e+00
2006 02 02  1725    53768   62700      0    1.45e+00    0    1.02e+00
2006 02 02  1730    53768   63000      0    1.44e+00    0    1.01e+00
2006 02 02  1735    53768   63300      0    1.46e+00    0    1.02e+00
2006 02 02  1740    53768   63600      0    1.44e+00    0    1.01e+00
2006 02 02  1745    53768   63900      0    1.43e+00    0    9.98e-01
2006 02 02  1750    53768   64200      0    1.48e+00    0    1.03e+00
2006 02 02  1755    53768   64500      0    1.43e+00    0    1.01e+00
2006 02 02  1800    53768   64800      0    1.42e+00    0    1.00e+00
2006 02 02  1805    53768   65100      0    1.45e+00    0    1.01e+00
2006 02 02  1810    53768   65400      0    1.43e+00    0    1.00e+00
2006 02 02  1815    53768   65700      0    1.45e+00    0    1.02e+00
2006 02 02  1820    53768   66000      0    1.47e+00    0    1.04e+00
2006 02 02  1825    53768   66300      0    1.48e+00    0    1.03e+00
2006 02 02  1830    53768   66600      0    1.45e+00    0    1.03e+00
2006 02 02  1835    53768   66900      0    1.46e+00    0    1.03e+00
2006 02 02  1840    53768   67200      0    1.46e+00    0    1.02e+00
2006 02 02  1845    53768   67500      0    1.47e+00    0    1.03e+00
2006 02 02  1850    53768   67800      0    1.44e+00    0    1.02e+00
2006 02 02  1855    53768   68100      0    1.45e+00    0    1.02e+00
2006 02 02  1900    53768   68400      0    1.46e+00    0    1.03e+00
2006 02 02  1905    53768   68700      0    1.46e+00    0    1.02e+00
2006 02 02  1910    53768   69000      0    1.43e+00    0    9.90e-01
2006 02 02  1915    53768   69300      0    1.47e+00    0    1.03e+00
2006 02 02  1920    53768   69600      0    1.47e+00    0    1.03e+00
2006 02 02  1925    53768   69900      0    1.45e+00    0    1.02e+00
2006 02 02  1930    53768   70200      0    1.44e+00    0    1.01e+00
2006 02 02  1935    53768   70500      0    1.48e+00    0    1.04e+00
2006 02 02  1940    53768   70800      0    1.47e+00    0    1.04e+00
2006 02 02  1945    53768   71100      0    1.45e+00    0    1.00e+00
2006 02 02  1950    53768   71400      0    1.47e+00    0    1.04e+00
2006 02 02  1955    53768   71700      0    1.44e+00    0    1.02e+00
2006 02 02  2000    53768   72000      0    1.41e+00    0    9.84e-01
2006 02 02  2005    53768   72300      0    1.46e+00    0    1.03e+00
2006 02 02  2010    53768   72600      0    1.46e+00    0    1.02e+00
2006 02 02  2015    53768   72900      0    1.44e+00    0    1.01e+00
2006 02 02  2020    53768   73200      0    1.47e+00    0    1.04e+00
2006 02 02  2025    53768   73500      0    1.47e+00    0    1.04e+00
2006 02 02  2030    53768   73800      0    1.47e+00    0    1.04e+00
2006 02 02  2035    53768   74100      0    1.43e+00    0    1.01e+00
2006 02 02  2040    53768   74400      0    1.45e+00    0    1.02e+00
2006 02 02  2045    53768   74700      0    1.47e+00    0    1.03e+00
2006 02 02  2050    53768   75000      0    1.47e+00    0    1.03e+00
2006 02 02  2055    53768   75300      0    1.45e+00    0    1.01e+00
2006 02 02  2100    53768   75600      0    1.43e+00    0    9.97e-01
2006 02 02  2105    53768   75900      0    1.45e+00    0    1.02e+00
2006 02 02  2110    53768   76200      0    1.45e+00    0    1.02e+00
2006 02 02  2115    53768   76500      0    1.48e+00    0    1.04e+00
2006 02 02  2120    53768   76800      0    1.44e+00    0    1.01e+00
2006 02 02  2125    53768   77100      0    1.48e+00    0    1.04e+00
2006 02 02  2130    53768   77400      0    1.45e+00    0    1.02e+00
2006 02 02  2135    53768   77700      0    1.45e+00    0    1.01e+00
2006 02 02  2140    53768   78000      0    1.46e+00    0    1.03e+00
2006 02 02  2145    53768   78300      0    1.47e+00    0    1.03e+00
2006 02 02  2150    53768   78600      0    1.44e+00    0    1.00e+00
2006 02 02  2155    53768   78900      0    1.48e+00    0    1.05e+00
2006 02 02  2200    53768   79200      0    1.41e+00    0    9.90e-01
2006 02 02  2205    53768   79500      0    1.47e+00    0    1.02e+00
2006 02 02  2210    53768   79800      0    1.44e+00    0    1.00e+00
2006 02 02  2215    53768   80100      0    1.48e+00    0    1.04e+00
2006 02 02  2220    53768   80400      0    1.46e+00    0    1.03e+00
2006 02 02  2225    53768   80700      0    1.49e+00    0    1.04e+00
2006 02 02  2230    53768   81000      0    1.47e+00    0    1.04e+00
2006 02 02  2235    53768   81300      0    1.45e+00    0    1.03e+00
2006 02 02  2240    53768   81600      0    1.49e+00    0    1.05e+00
2006 02 02  2245    53768   81900      0    1.47e+00    0    1.03e+00
2006 02 02  2250    53768   82200      0    1.48e+00    0    1.05e+00
2006 02 02  2255    53768   82500      0    1.50e+00    0    1.06e+00
2006 02 02  2300    53768   82800      0    1.45e+00    0    1.02e+00
2006 02 02  2305    53768   83100      0    1.46e+00    0    1.02e+00
2006 02 02  2310    53768   83400      0    1.47e+00    0    1.03e+00
2006 02 02  2315    53768   83700      0    1.47e+00    0    1.03e+00
2006 02 02  2320    53768   84000      0    1.48e+00    0    1.03e+00
2006 02 02  2325    53768   84300      0    1.49e+00    0    1.04e+00
2006 02 02  2330    53768   84600      0    1.43e+00    0    1.01e+00
2006 02 02  2335    53768   84900      0    1.47e+00    0    1.04e+00
2006 02 02  2340    53768   85200      0    1.49e+00    0    1.06e+00
2006 02 02  2345    53768   85500      0    1.46e+00    0    1.03e+00
2006 02 02  2350    53768   85800      0    1.43e+00    0    1.01e+00
2006 02 02  2355    53768   86100      0    1.44e+00    0    1.01e+00
