:Data_list: 20061204_ace_sis_5m.txt
:Created: 2006 Dec 05 0011 UT
# Prepared by the U.S. Dept. of Commerce, NOAA, Space Environment Center.
# Please send comments and suggestions to SEC.Webmaster@noaa.gov 
# 
# Units: proton flux p/cs2-sec-ster
# Status(S): 0 = nominal data, 1 to 8 = bad data record, 9 = no data
# Missing data values: -1.00e+05
# Source: ACE Satellite - Solar Isotope Spectrometer
#
# 5-minute averaged Real-time Integral Flux of High-energy Solar Protons
# 
#                 Modified Seconds
# UT Date   Time   Julian  of the      ---- Integral Proton Flux ----
# YR MO DA  HHMM     Day     Day       S    > 10 MeV    S    > 30 MeV
#--------------------------------------------------------------------
2006 12 04  0000    54073       0      0    1.77e+00    0    1.24e+00
2006 12 04  0005    54073     300      0    1.78e+00    0    1.26e+00
2006 12 04  0010    54073     600      0    1.66e+00    0    1.17e+00
2006 12 04  0015    54073     900      0    1.76e+00    0    1.23e+00
2006 12 04  0020    54073    1200      0    1.76e+00    0    1.23e+00
2006 12 04  0025    54073    1500      0    1.81e+00    0    1.26e+00
2006 12 04  0030    54073    1800      0    1.74e+00    0    1.22e+00
2006 12 04  0035    54073    2100      0    1.74e+00    0    1.22e+00
2006 12 04  0040    54073    2400      0    1.78e+00    0    1.24e+00
2006 12 04  0045    54073    2700      0    1.78e+00    0    1.25e+00
2006 12 04  0050    54073    3000      0    1.75e+00    0    1.23e+00
2006 12 04  0055    54073    3300      0    1.77e+00    0    1.24e+00
2006 12 04  0100    54073    3600      0    1.75e+00    0    1.21e+00
2006 12 04  0105    54073    3900      0    1.75e+00    0    1.24e+00
2006 12 04  0110    54073    4200      0    1.74e+00    0    1.23e+00
2006 12 04  0115    54073    4500      0    1.75e+00    0    1.22e+00
2006 12 04  0120    54073    4800      0    1.73e+00    0    1.21e+00
2006 12 04  0125    54073    5100      0    1.77e+00    0    1.24e+00
2006 12 04  0130    54073    5400      0    1.78e+00    0    1.25e+00
2006 12 04  0135    54073    5700      0    1.79e+00    0    1.25e+00
2006 12 04  0140    54073    6000      0    1.75e+00    0    1.23e+00
2006 12 04  0145    54073    6300      0    1.76e+00    0    1.23e+00
2006 12 04  0150    54073    6600      0    1.74e+00    0    1.22e+00
2006 12 04  0155    54073    6900      0    1.76e+00    0    1.24e+00
2006 12 04  0200    54073    7200      0    1.75e+00    0    1.24e+00
2006 12 04  0205    54073    7500      0    1.75e+00    0    1.24e+00
2006 12 04  0210    54073    7800      0    1.76e+00    0    1.24e+00
2006 12 04  0215    54073    8100      0    1.69e+00    0    1.19e+00
2006 12 04  0220    54073    8400      0    1.78e+00    0    1.24e+00
2006 12 04  0225    54073    8700      0    1.76e+00    0    1.24e+00
2006 12 04  0230    54073    9000      0    1.72e+00    0    1.20e+00
2006 12 04  0235    54073    9300      0    1.75e+00    0    1.22e+00
2006 12 04  0240    54073    9600      0    1.71e+00    0    1.21e+00
2006 12 04  0245    54073    9900      0    1.78e+00    0    1.25e+00
2006 12 04  0250    54073   10200      0    1.75e+00    0    1.22e+00
2006 12 04  0255    54073   10500      0    1.77e+00    0    1.24e+00
2006 12 04  0300    54073   10800      0    1.76e+00    0    1.23e+00
2006 12 04  0305    54073   11100      0    1.79e+00    0    1.25e+00
2006 12 04  0310    54073   11400      0    1.76e+00    0    1.24e+00
2006 12 04  0315    54073   11700      0    1.74e+00    0    1.22e+00
2006 12 04  0320    54073   12000      0    1.69e+00    0    1.19e+00
2006 12 04  0325    54073   12300      0    1.77e+00    0    1.26e+00
2006 12 04  0330    54073   12600      0    1.73e+00    0    1.21e+00
2006 12 04  0335    54073   12900      0    1.74e+00    0    1.23e+00
2006 12 04  0340    54073   13200      0    1.73e+00    0    1.21e+00
2006 12 04  0345    54073   13500      0    1.77e+00    0    1.25e+00
2006 12 04  0350    54073   13800      0    1.75e+00    0    1.23e+00
2006 12 04  0355    54073   14100      0    1.77e+00    0    1.25e+00
2006 12 04  0400    54073   14400      0    1.75e+00    0    1.22e+00
2006 12 04  0405    54073   14700      0    1.71e+00    0    1.20e+00
2006 12 04  0410    54073   15000      0    1.76e+00    0    1.22e+00
2006 12 04  0415    54073   15300      0    1.79e+00    0    1.27e+00
2006 12 04  0420    54073   15600      0    1.76e+00    0    1.23e+00
2006 12 04  0425    54073   15900      0    1.76e+00    0    1.23e+00
2006 12 04  0430    54073   16200      0    1.73e+00    0    1.20e+00
2006 12 04  0435    54073   16500      0    1.79e+00    0    1.26e+00
2006 12 04  0440    54073   16800      0    1.75e+00    0    1.23e+00
2006 12 04  0445    54073   17100      0    1.74e+00    0    1.22e+00
2006 12 04  0450    54073   17400      0    1.76e+00    0    1.24e+00
2006 12 04  0455    54073   17700      0    1.74e+00    0    1.22e+00
2006 12 04  0500    54073   18000      0    1.75e+00    0    1.22e+00
2006 12 04  0505    54073   18300      0    1.76e+00    0    1.23e+00
2006 12 04  0510    54073   18600      0    1.77e+00    0    1.25e+00
2006 12 04  0515    54073   18900      0    1.76e+00    0    1.24e+00
2006 12 04  0520    54073   19200      0    1.75e+00    0    1.24e+00
2006 12 04  0525    54073   19500      0    1.77e+00    0    1.24e+00
2006 12 04  0530    54073   19800      0    1.75e+00    0    1.22e+00
2006 12 04  0535    54073   20100      0    1.75e+00    0    1.22e+00
2006 12 04  0540    54073   20400      0    1.75e+00    0    1.22e+00
2006 12 04  0545    54073   20700      0    1.75e+00    0    1.23e+00
2006 12 04  0550    54073   21000      0    1.75e+00    0    1.22e+00
2006 12 04  0555    54073   21300      0    1.75e+00    0    1.22e+00
2006 12 04  0600    54073   21600      0    1.77e+00    0    1.24e+00
2006 12 04  0605    54073   21900      0    1.73e+00    0    1.23e+00
2006 12 04  0610    54073   22200      0    1.76e+00    0    1.23e+00
2006 12 04  0615    54073   22500      0    1.74e+00    0    1.21e+00
2006 12 04  0620    54073   22800      0    1.75e+00    0    1.22e+00
2006 12 04  0625    54073   23100      0    1.71e+00    0    1.20e+00
2006 12 04  0630    54073   23400      0    1.74e+00    0    1.22e+00
2006 12 04  0635    54073   23700      0    1.78e+00    0    1.26e+00
2006 12 04  0640    54073   24000      0    1.78e+00    0    1.26e+00
2006 12 04  0645    54073   24300      0    1.74e+00    0    1.21e+00
2006 12 04  0650    54073   24600      0    1.77e+00    0    1.23e+00
2006 12 04  0655    54073   24900      0    1.73e+00    0    1.21e+00
2006 12 04  0700    54073   25200      0    1.75e+00    0    1.21e+00
2006 12 04  0705    54073   25500      0    1.75e+00    0    1.23e+00
2006 12 04  0710    54073   25800      0    1.79e+00    0    1.26e+00
2006 12 04  0715    54073   26100      0    1.74e+00    0    1.24e+00
2006 12 04  0720    54073   26400      0    1.75e+00    0    1.23e+00
2006 12 04  0725    54073   26700      0    1.71e+00    0    1.20e+00
2006 12 04  0730    54073   27000      0    1.67e+00    0    1.18e+00
2006 12 04  0735    54073   27300      0    1.77e+00    0    1.23e+00
2006 12 04  0740    54073   27600      0    1.75e+00    0    1.22e+00
2006 12 04  0745    54073   27900      0    1.71e+00    0    1.20e+00
2006 12 04  0750    54073   28200      0    1.75e+00    0    1.21e+00
2006 12 04  0755    54073   28500      0    1.75e+00    0    1.23e+00
2006 12 04  0800    54073   28800      0    1.74e+00    0    1.21e+00
2006 12 04  0805    54073   29100      0    1.73e+00    0    1.22e+00
2006 12 04  0810    54073   29400      0    1.74e+00    0    1.23e+00
2006 12 04  0815    54073   29700      0    1.75e+00    0    1.23e+00
2006 12 04  0820    54073   30000      0    1.74e+00    0    1.22e+00
2006 12 04  0825    54073   30300      0    1.77e+00    0    1.24e+00
2006 12 04  0830    54073   30600      0    1.75e+00    0    1.22e+00
2006 12 04  0835    54073   30900      0    1.76e+00    0    1.25e+00
2006 12 04  0840    54073   31200      0    1.74e+00    0    1.21e+00
2006 12 04  0845    54073   31500      0    1.78e+00    0    1.24e+00
2006 12 04  0850    54073   31800      0    1.75e+00    0    1.23e+00
2006 12 04  0855    54073   32100      0    1.75e+00    0    1.23e+00
2006 12 04  0900    54073   32400      0    1.76e+00    0    1.23e+00
2006 12 04  0905    54073   32700      0    1.77e+00    0    1.25e+00
2006 12 04  0910    54073   33000      0    1.77e+00    0    1.24e+00
2006 12 04  0915    54073   33300      0    1.77e+00    0    1.24e+00
2006 12 04  0920    54073   33600      0    1.79e+00    0    1.25e+00
2006 12 04  0925    54073   33900      0    1.76e+00    0    1.24e+00
2006 12 04  0930    54073   34200      0    1.82e+00    0    1.27e+00
2006 12 04  0935    54073   34500      0    1.79e+00    0    1.25e+00
2006 12 04  0940    54073   34800      0    1.77e+00    0    1.25e+00
2006 12 04  0945    54073   35100      0    1.76e+00    0    1.22e+00
2006 12 04  0950    54073   35400      0    1.75e+00    0    1.23e+00
2006 12 04  0955    54073   35700      0    1.76e+00    0    1.23e+00
2006 12 04  1000    54073   36000      0    1.76e+00    0    1.23e+00
2006 12 04  1005    54073   36300      0    1.76e+00    0    1.23e+00
2006 12 04  1010    54073   36600      0    1.79e+00    0    1.28e+00
2006 12 04  1015    54073   36900      0    1.81e+00    0    1.27e+00
2006 12 04  1020    54073   37200      0    1.76e+00    0    1.24e+00
2006 12 04  1025    54073   37500      0    1.77e+00    0    1.24e+00
2006 12 04  1030    54073   37800      0    1.77e+00    0    1.24e+00
2006 12 04  1035    54073   38100      0    1.79e+00    0    1.26e+00
2006 12 04  1040    54073   38400      0    1.75e+00    0    1.23e+00
2006 12 04  1045    54073   38700      0    1.78e+00    0    1.24e+00
2006 12 04  1050    54073   39000      0    1.74e+00    0    1.24e+00
2006 12 04  1055    54073   39300      0    1.79e+00    0    1.26e+00
2006 12 04  1100    54073   39600      0    1.75e+00    0    1.23e+00
2006 12 04  1105    54073   39900      0    1.78e+00    0    1.26e+00
2006 12 04  1110    54073   40200      0    1.75e+00    0    1.22e+00
2006 12 04  1115    54073   40500      0    1.70e+00    0    1.18e+00
2006 12 04  1120    54073   40800      0    1.77e+00    0    1.24e+00
2006 12 04  1125    54073   41100      0    1.78e+00    0    1.24e+00
2006 12 04  1130    54073   41400      0    1.77e+00    0    1.24e+00
2006 12 04  1135    54073   41700      0    1.72e+00    0    1.20e+00
2006 12 04  1140    54073   42000      0    1.76e+00    0    1.24e+00
2006 12 04  1145    54073   42300      0    1.77e+00    0    1.23e+00
2006 12 04  1150    54073   42600      0    1.76e+00    0    1.23e+00
2006 12 04  1155    54073   42900      0    1.76e+00    0    1.24e+00
2006 12 04  1200    54073   43200      0    1.76e+00    0    1.23e+00
2006 12 04  1205    54073   43500      0    1.71e+00    0    1.20e+00
2006 12 04  1210    54073   43800      0    1.75e+00    0    1.23e+00
2006 12 04  1215    54073   44100      0    1.77e+00    0    1.24e+00
2006 12 04  1220    54073   44400      0    1.76e+00    0    1.22e+00
2006 12 04  1225    54073   44700      0    1.77e+00    0    1.24e+00
2006 12 04  1230    54073   45000      0    1.76e+00    0    1.24e+00
2006 12 04  1235    54073   45300      0    1.75e+00    0    1.23e+00
2006 12 04  1240    54073   45600      0    1.80e+00    0    1.27e+00
2006 12 04  1245    54073   45900      0    1.74e+00    0    1.22e+00
2006 12 04  1250    54073   46200      0    1.80e+00    0    1.25e+00
2006 12 04  1255    54073   46500      0    1.75e+00    0    1.23e+00
2006 12 04  1300    54073   46800      0    1.79e+00    0    1.25e+00
2006 12 04  1305    54073   47100      0    1.77e+00    0    1.23e+00
2006 12 04  1310    54073   47400      0    1.74e+00    0    1.23e+00
2006 12 04  1315    54073   47700      0    1.76e+00    0    1.22e+00
2006 12 04  1320    54073   48000      0    1.79e+00    0    1.26e+00
2006 12 04  1325    54073   48300      0    1.77e+00    0    1.23e+00
2006 12 04  1330    54073   48600      0    1.76e+00    0    1.23e+00
2006 12 04  1335    54073   48900      0    1.77e+00    0    1.24e+00
2006 12 04  1340    54073   49200      0    1.73e+00    0    1.22e+00
2006 12 04  1345    54073   49500      0    1.75e+00    0    1.22e+00
2006 12 04  1350    54073   49800      0    1.76e+00    0    1.25e+00
2006 12 04  1355    54073   50100      0    1.75e+00    0    1.23e+00
2006 12 04  1400    54073   50400      0    1.78e+00    0    1.25e+00
2006 12 04  1405    54073   50700      0    1.77e+00    0    1.24e+00
2006 12 04  1410    54073   51000      0    1.74e+00    0    1.23e+00
2006 12 04  1415    54073   51300      0    1.81e+00    0    1.27e+00
2006 12 04  1420    54073   51600      0    1.76e+00    0    1.23e+00
2006 12 04  1425    54073   51900      0    1.76e+00    0    1.24e+00
2006 12 04  1430    54073   52200      0    1.75e+00    0    1.23e+00
2006 12 04  1435    54073   52500      0    1.73e+00    0    1.21e+00
2006 12 04  1440    54073   52800      0    1.77e+00    0    1.25e+00
2006 12 04  1445    54073   53100      0    1.75e+00    0    1.23e+00
2006 12 04  1450    54073   53400      0    1.80e+00    0    1.27e+00
2006 12 04  1455    54073   53700      0    1.82e+00    0    1.28e+00
2006 12 04  1500    54073   54000      0    1.77e+00    0    1.24e+00
2006 12 04  1505    54073   54300      0    1.77e+00    0    1.24e+00
2006 12 04  1510    54073   54600      0    1.77e+00    0    1.23e+00
2006 12 04  1515    54073   54900      0    1.78e+00    0    1.24e+00
2006 12 04  1520    54073   55200      0    1.80e+00    0    1.27e+00
2006 12 04  1525    54073   55500      9   -1.00e+05    9   -1.00e+05
2006 12 04  1530    54073   55800      0    1.79e+00    0    1.26e+00
2006 12 04  1535    54073   56100      0    1.73e+00    0    1.20e+00
2006 12 04  1540    54073   56400      0    1.77e+00    0    1.25e+00
2006 12 04  1545    54073   56700      0    1.77e+00    0    1.25e+00
2006 12 04  1550    54073   57000      0    1.80e+00    0    1.27e+00
2006 12 04  1555    54073   57300      0    1.79e+00    0    1.26e+00
2006 12 04  1600    54073   57600      0    1.76e+00    0    1.24e+00
2006 12 04  1605    54073   57900      0    1.75e+00    0    1.23e+00
2006 12 04  1610    54073   58200      0    1.78e+00    0    1.25e+00
2006 12 04  1615    54073   58500      0    1.78e+00    0    1.25e+00
2006 12 04  1620    54073   58800      0    1.77e+00    0    1.23e+00
2006 12 04  1625    54073   59100      0    1.78e+00    0    1.25e+00
2006 12 04  1630    54073   59400      0    1.81e+00    0    1.27e+00
2006 12 04  1635    54073   59700      0    1.76e+00    0    1.23e+00
2006 12 04  1640    54073   60000      0    1.75e+00    0    1.22e+00
2006 12 04  1645    54073   60300      0    1.74e+00    0    1.22e+00
2006 12 04  1650    54073   60600      0    1.78e+00    0    1.25e+00
2006 12 04  1655    54073   60900      0    1.76e+00    0    1.23e+00
2006 12 04  1700    54073   61200      0    1.81e+00    0    1.27e+00
2006 12 04  1705    54073   61500      0    1.74e+00    0    1.22e+00
2006 12 04  1710    54073   61800      0    1.78e+00    0    1.25e+00
2006 12 04  1715    54073   62100      0    1.81e+00    0    1.27e+00
2006 12 04  1720    54073   62400      0    1.78e+00    0    1.24e+00
2006 12 04  1725    54073   62700      0    1.76e+00    0    1.23e+00
2006 12 04  1730    54073   63000      0    1.76e+00    0    1.23e+00
2006 12 04  1735    54073   63300      0    1.81e+00    0    1.27e+00
2006 12 04  1740    54073   63600      0    1.78e+00    0    1.26e+00
2006 12 04  1745    54073   63900      0    1.73e+00    0    1.20e+00
2006 12 04  1750    54073   64200      9   -1.00e+05    0    2.01e+00
2006 12 04  1755    54073   64500      0    1.76e+00    0    1.23e+00
2006 12 04  1800    54073   64800      0    1.82e+00    0    1.29e+00
2006 12 04  1805    54073   65100      0    1.82e+00    0    1.29e+00
2006 12 04  1810    54073   65400      0    1.81e+00    0    1.27e+00
2006 12 04  1815    54073   65700      0    1.78e+00    0    1.24e+00
2006 12 04  1820    54073   66000      0    1.77e+00    0    1.25e+00
2006 12 04  1825    54073   66300      0    1.80e+00    0    1.25e+00
2006 12 04  1830    54073   66600      0    1.79e+00    0    1.24e+00
2006 12 04  1835    54073   66900      0    1.80e+00    0    1.27e+00
2006 12 04  1840    54073   67200      0    1.81e+00    0    1.27e+00
2006 12 04  1845    54073   67500      0    1.81e+00    0    1.27e+00
2006 12 04  1850    54073   67800      0    1.74e+00    0    1.23e+00
2006 12 04  1855    54073   68100      0    1.79e+00    0    1.26e+00
2006 12 04  1900    54073   68400      0    1.78e+00    0    1.24e+00
2006 12 04  1905    54073   68700      0    1.76e+00    0    1.23e+00
2006 12 04  1910    54073   69000      0    1.77e+00    0    1.23e+00
2006 12 04  1915    54073   69300      0    1.80e+00    0    1.26e+00
2006 12 04  1920    54073   69600      0    1.82e+00    0    1.28e+00
2006 12 04  1925    54073   69900      0    1.81e+00    0    1.27e+00
2006 12 04  1930    54073   70200      0    1.78e+00    0    1.23e+00
2006 12 04  1935    54073   70500      0    1.81e+00    0    1.27e+00
2006 12 04  1940    54073   70800      0    1.73e+00    0    1.21e+00
2006 12 04  1945    54073   71100      0    1.77e+00    0    1.23e+00
2006 12 04  1950    54073   71400      0    1.83e+00    0    1.29e+00
2006 12 04  1955    54073   71700      0    1.77e+00    0    1.24e+00
2006 12 04  2000    54073   72000      0    1.79e+00    0    1.26e+00
2006 12 04  2005    54073   72300      0    1.81e+00    0    1.28e+00
2006 12 04  2010    54073   72600      0    1.80e+00    0    1.27e+00
2006 12 04  2015    54073   72900      0    1.80e+00    0    1.27e+00
2006 12 04  2020    54073   73200      0    1.79e+00    0    1.26e+00
2006 12 04  2025    54073   73500      0    1.81e+00    0    1.25e+00
2006 12 04  2030    54073   73800      0    1.78e+00    0    1.24e+00
2006 12 04  2035    54073   74100      0    1.81e+00    0    1.27e+00
2006 12 04  2040    54073   74400      9   -1.00e+05    9   -1.00e+05
2006 12 04  2045    54073   74700      9   -1.00e+05    9   -1.00e+05
2006 12 04  2050    54073   75000      9   -1.00e+05    9   -1.00e+05
2006 12 04  2055    54073   75300      9   -1.00e+05    9   -1.00e+05
2006 12 04  2100    54073   75600      9   -1.00e+05    9   -1.00e+05
2006 12 04  2105    54073   75900      9   -1.00e+05    9   -1.00e+05
2006 12 04  2110    54073   76200      0    1.69e+00    0    1.18e+00
2006 12 04  2115    54073   76500      0    1.79e+00    0    1.25e+00
2006 12 04  2120    54073   76800      0    1.77e+00    0    1.23e+00
2006 12 04  2125    54073   77100      0    1.81e+00    0    1.25e+00
2006 12 04  2130    54073   77400      0    1.78e+00    0    1.25e+00
2006 12 04  2135    54073   77700      0    1.75e+00    0    1.23e+00
2006 12 04  2140    54073   78000      0    1.78e+00    0    1.25e+00
2006 12 04  2145    54073   78300      0    1.78e+00    0    1.24e+00
2006 12 04  2150    54073   78600      0    1.77e+00    0    1.24e+00
2006 12 04  2155    54073   78900      0    1.77e+00    0    1.23e+00
2006 12 04  2200    54073   79200      0    1.82e+00    0    1.29e+00
2006 12 04  2205    54073   79500      0    1.76e+00    0    1.24e+00
2006 12 04  2210    54073   79800      0    1.78e+00    0    1.24e+00
2006 12 04  2215    54073   80100      0    1.82e+00    0    1.27e+00
2006 12 04  2220    54073   80400      0    1.81e+00    0    1.26e+00
2006 12 04  2225    54073   80700      0    1.74e+00    0    1.22e+00
2006 12 04  2230    54073   81000      0    1.78e+00    0    1.24e+00
2006 12 04  2235    54073   81300      0    1.77e+00    0    1.24e+00
2006 12 04  2240    54073   81600      0    1.73e+00    0    1.22e+00
2006 12 04  2245    54073   81900      0    1.79e+00    0    1.24e+00
2006 12 04  2250    54073   82200      0    1.78e+00    0    1.24e+00
2006 12 04  2255    54073   82500      0    1.78e+00    0    1.24e+00
2006 12 04  2300    54073   82800      0    1.78e+00    0    1.25e+00
2006 12 04  2305    54073   83100      0    1.79e+00    0    1.26e+00
2006 12 04  2310    54073   83400      0    1.78e+00    0    1.24e+00
2006 12 04  2315    54073   83700      0    1.81e+00    0    1.26e+00
2006 12 04  2320    54073   84000      0    1.78e+00    0    1.25e+00
2006 12 04  2325    54073   84300      0    1.78e+00    0    1.24e+00
2006 12 04  2330    54073   84600      0    1.78e+00    0    1.24e+00
2006 12 04  2335    54073   84900      0    1.77e+00    0    1.24e+00
2006 12 04  2340    54073   85200      0    1.78e+00    0    1.26e+00
2006 12 04  2345    54073   85500      0    1.79e+00    0    1.26e+00
2006 12 04  2350    54073   85800      0    1.73e+00    0    1.20e+00
2006 12 04  2355    54073   86100      9   -1.00e+05    9   -1.00e+05
