:Data_list: 20060923_ace_sis_5m.txt
:Created: 2006 Sep 24 0011 UT
# Prepared by the U.S. Dept. of Commerce, NOAA, Space Environment Center.
# Please send comments and suggestions to SEC.Webmaster@noaa.gov 
# 
# Units: proton flux p/cs2-sec-ster
# Status(S): 0 = nominal data, 1 to 8 = bad data record, 9 = no data
# Missing data values: -1.00e+05
# Source: ACE Satellite - Solar Isotope Spectrometer
#
# 5-minute averaged Real-time Integral Flux of High-energy Solar Protons
# 
#                 Modified Seconds
# UT Date   Time   Julian  of the      ---- Integral Proton Flux ----
# YR MO DA  HHMM     Day     Day       S    > 10 MeV    S    > 30 MeV
#--------------------------------------------------------------------
2006 09 23  0000    54001       0      0    1.71e+00    0    1.20e+00
2006 09 23  0005    54001     300      0    1.73e+00    0    1.22e+00
2006 09 23  0010    54001     600      0    1.67e+00    0    1.17e+00
2006 09 23  0015    54001     900      0    1.68e+00    0    1.17e+00
2006 09 23  0020    54001    1200      0    1.66e+00    0    1.15e+00
2006 09 23  0025    54001    1500      0    1.66e+00    0    1.16e+00
2006 09 23  0030    54001    1800      0    1.69e+00    0    1.19e+00
2006 09 23  0035    54001    2100      0    1.66e+00    0    1.17e+00
2006 09 23  0040    54001    2400      0    1.71e+00    0    1.20e+00
2006 09 23  0045    54001    2700      0    1.69e+00    0    1.18e+00
2006 09 23  0050    54001    3000      0    1.67e+00    0    1.18e+00
2006 09 23  0055    54001    3300      0    1.69e+00    0    1.19e+00
2006 09 23  0100    54001    3600      0    1.67e+00    0    1.18e+00
2006 09 23  0105    54001    3900      0    1.69e+00    0    1.18e+00
2006 09 23  0110    54001    4200      0    1.67e+00    0    1.17e+00
2006 09 23  0115    54001    4500      0    1.69e+00    0    1.17e+00
2006 09 23  0120    54001    4800      0    1.69e+00    0    1.21e+00
2006 09 23  0125    54001    5100      0    1.68e+00    0    1.17e+00
2006 09 23  0130    54001    5400      0    1.69e+00    0    1.20e+00
2006 09 23  0135    54001    5700      0    1.68e+00    0    1.16e+00
2006 09 23  0140    54001    6000      0    1.72e+00    0    1.21e+00
2006 09 23  0145    54001    6300      0    1.69e+00    0    1.18e+00
2006 09 23  0150    54001    6600      0    1.70e+00    0    1.21e+00
2006 09 23  0155    54001    6900      0    1.70e+00    0    1.20e+00
2006 09 23  0200    54001    7200      0    1.70e+00    0    1.19e+00
2006 09 23  0205    54001    7500      0    1.71e+00    0    1.21e+00
2006 09 23  0210    54001    7800      0    1.67e+00    0    1.17e+00
2006 09 23  0215    54001    8100      0    1.67e+00    0    1.18e+00
2006 09 23  0220    54001    8400      0    1.69e+00    0    1.19e+00
2006 09 23  0225    54001    8700      0    1.72e+00    0    1.20e+00
2006 09 23  0230    54001    9000      0    1.69e+00    0    1.18e+00
2006 09 23  0235    54001    9300      0    1.69e+00    0    1.19e+00
2006 09 23  0240    54001    9600      0    1.69e+00    0    1.18e+00
2006 09 23  0245    54001    9900      0    1.70e+00    0    1.19e+00
2006 09 23  0250    54001   10200      0    1.73e+00    0    1.21e+00
2006 09 23  0255    54001   10500      0    1.65e+00    0    1.16e+00
2006 09 23  0300    54001   10800      0    1.72e+00    0    1.22e+00
2006 09 23  0305    54001   11100      0    1.66e+00    0    1.17e+00
2006 09 23  0310    54001   11400      0    1.70e+00    0    1.19e+00
2006 09 23  0315    54001   11700      0    1.67e+00    0    1.16e+00
2006 09 23  0320    54001   12000      0    1.69e+00    0    1.19e+00
2006 09 23  0325    54001   12300      0    1.70e+00    0    1.20e+00
2006 09 23  0330    54001   12600      0    1.67e+00    0    1.16e+00
2006 09 23  0335    54001   12900      0    1.71e+00    0    1.19e+00
2006 09 23  0340    54001   13200      0    1.69e+00    0    1.19e+00
2006 09 23  0345    54001   13500      0    1.67e+00    0    1.17e+00
2006 09 23  0350    54001   13800      0    1.71e+00    0    1.20e+00
2006 09 23  0355    54001   14100      0    1.69e+00    0    1.19e+00
2006 09 23  0400    54001   14400      0    1.69e+00    0    1.19e+00
2006 09 23  0405    54001   14700      0    1.68e+00    0    1.19e+00
2006 09 23  0410    54001   15000      0    1.70e+00    0    1.20e+00
2006 09 23  0415    54001   15300      0    1.70e+00    0    1.19e+00
2006 09 23  0420    54001   15600      0    1.72e+00    0    1.21e+00
2006 09 23  0425    54001   15900      0    1.69e+00    0    1.18e+00
2006 09 23  0430    54001   16200      0    1.71e+00    0    1.20e+00
2006 09 23  0435    54001   16500      0    1.67e+00    0    1.17e+00
2006 09 23  0440    54001   16800      0    1.72e+00    0    1.21e+00
2006 09 23  0445    54001   17100      0    1.71e+00    0    1.20e+00
2006 09 23  0450    54001   17400      0    1.69e+00    0    1.19e+00
2006 09 23  0455    54001   17700      0    1.71e+00    0    1.19e+00
2006 09 23  0500    54001   18000      0    1.69e+00    0    1.18e+00
2006 09 23  0505    54001   18300      0    1.72e+00    0    1.20e+00
2006 09 23  0510    54001   18600      0    1.72e+00    0    1.21e+00
2006 09 23  0515    54001   18900      0    1.67e+00    0    1.18e+00
2006 09 23  0520    54001   19200      0    1.70e+00    0    1.19e+00
2006 09 23  0525    54001   19500      0    1.70e+00    0    1.21e+00
2006 09 23  0530    54001   19800      0    1.74e+00    0    1.21e+00
2006 09 23  0535    54001   20100      0    1.71e+00    0    1.21e+00
2006 09 23  0540    54001   20400      0    1.69e+00    0    1.19e+00
2006 09 23  0545    54001   20700      0    1.69e+00    0    1.18e+00
2006 09 23  0550    54001   21000      0    1.67e+00    0    1.17e+00
2006 09 23  0555    54001   21300      0    1.68e+00    0    1.18e+00
2006 09 23  0600    54001   21600      0    1.70e+00    0    1.20e+00
2006 09 23  0605    54001   21900      0    1.68e+00    0    1.18e+00
2006 09 23  0610    54001   22200      0    1.73e+00    0    1.21e+00
2006 09 23  0615    54001   22500      0    1.69e+00    0    1.18e+00
2006 09 23  0620    54001   22800      0    1.72e+00    0    1.21e+00
2006 09 23  0625    54001   23100      0    1.64e+00    0    1.15e+00
2006 09 23  0630    54001   23400      0    1.67e+00    0    1.17e+00
2006 09 23  0635    54001   23700      0    1.75e+00    0    1.24e+00
2006 09 23  0640    54001   24000      0    1.73e+00    0    1.22e+00
2006 09 23  0645    54001   24300      0    1.71e+00    0    1.20e+00
2006 09 23  0650    54001   24600      0    1.71e+00    0    1.21e+00
2006 09 23  0655    54001   24900      0    1.68e+00    0    1.19e+00
2006 09 23  0700    54001   25200      0    1.71e+00    0    1.20e+00
2006 09 23  0705    54001   25500      0    1.74e+00    0    1.21e+00
2006 09 23  0710    54001   25800      0    1.73e+00    0    1.21e+00
2006 09 23  0715    54001   26100      0    1.71e+00    0    1.20e+00
2006 09 23  0720    54001   26400      0    1.73e+00    0    1.22e+00
2006 09 23  0725    54001   26700      0    1.71e+00    0    1.19e+00
2006 09 23  0730    54001   27000      0    1.71e+00    0    1.20e+00
2006 09 23  0735    54001   27300      0    1.68e+00    0    1.17e+00
2006 09 23  0740    54001   27600      0    1.71e+00    0    1.19e+00
2006 09 23  0745    54001   27900      0    1.69e+00    0    1.18e+00
2006 09 23  0750    54001   28200      0    1.69e+00    0    1.18e+00
2006 09 23  0755    54001   28500      0    1.72e+00    0    1.20e+00
2006 09 23  0800    54001   28800      0    1.70e+00    0    1.19e+00
2006 09 23  0805    54001   29100      0    1.74e+00    0    1.23e+00
2006 09 23  0810    54001   29400      0    1.68e+00    0    1.17e+00
2006 09 23  0815    54001   29700      0    1.74e+00    0    1.23e+00
2006 09 23  0820    54001   30000      0    1.71e+00    0    1.21e+00
2006 09 23  0825    54001   30300      0    1.68e+00    0    1.16e+00
2006 09 23  0830    54001   30600      0    1.71e+00    0    1.20e+00
2006 09 23  0835    54001   30900      0    1.71e+00    0    1.19e+00
2006 09 23  0840    54001   31200      0    1.72e+00    0    1.20e+00
2006 09 23  0845    54001   31500      0    1.72e+00    0    1.22e+00
2006 09 23  0850    54001   31800      0    1.71e+00    0    1.19e+00
2006 09 23  0855    54001   32100      0    1.66e+00    0    1.16e+00
2006 09 23  0900    54001   32400      0    1.73e+00    0    1.21e+00
2006 09 23  0905    54001   32700      0    1.70e+00    0    1.19e+00
2006 09 23  0910    54001   33000      0    1.71e+00    0    1.21e+00
2006 09 23  0915    54001   33300      0    1.71e+00    0    1.20e+00
2006 09 23  0920    54001   33600      0    1.71e+00    0    1.20e+00
2006 09 23  0925    54001   33900      0    1.69e+00    0    1.17e+00
2006 09 23  0930    54001   34200      0    1.70e+00    0    1.19e+00
2006 09 23  0935    54001   34500      0    1.67e+00    0    1.17e+00
2006 09 23  0940    54001   34800      0    1.73e+00    0    1.22e+00
2006 09 23  0945    54001   35100      0    1.69e+00    0    1.18e+00
2006 09 23  0950    54001   35400      0    1.71e+00    0    1.20e+00
2006 09 23  0955    54001   35700      0    1.75e+00    0    1.22e+00
2006 09 23  1000    54001   36000      0    1.72e+00    0    1.20e+00
2006 09 23  1005    54001   36300      0    1.71e+00    0    1.19e+00
2006 09 23  1010    54001   36600      0    1.73e+00    0    1.22e+00
2006 09 23  1015    54001   36900      0    1.72e+00    0    1.21e+00
2006 09 23  1020    54001   37200      0    1.71e+00    0    1.19e+00
2006 09 23  1025    54001   37500      0    1.73e+00    0    1.21e+00
2006 09 23  1030    54001   37800      0    1.71e+00    0    1.20e+00
2006 09 23  1035    54001   38100      0    1.71e+00    0    1.21e+00
2006 09 23  1040    54001   38400      0    1.70e+00    0    1.20e+00
2006 09 23  1045    54001   38700      0    1.71e+00    0    1.20e+00
2006 09 23  1050    54001   39000      0    1.70e+00    0    1.20e+00
2006 09 23  1055    54001   39300      0    1.72e+00    0    1.21e+00
2006 09 23  1100    54001   39600      0    1.72e+00    0    1.21e+00
2006 09 23  1105    54001   39900      0    1.72e+00    0    1.21e+00
2006 09 23  1110    54001   40200      0    1.71e+00    0    1.20e+00
2006 09 23  1115    54001   40500      0    1.70e+00    0    1.19e+00
2006 09 23  1120    54001   40800      0    1.70e+00    0    1.21e+00
2006 09 23  1125    54001   41100      0    1.70e+00    0    1.19e+00
2006 09 23  1130    54001   41400      0    1.68e+00    0    1.18e+00
2006 09 23  1135    54001   41700      0    1.72e+00    0    1.21e+00
2006 09 23  1140    54001   42000      0    1.70e+00    0    1.17e+00
2006 09 23  1145    54001   42300      0    1.70e+00    0    1.18e+00
2006 09 23  1150    54001   42600      0    1.71e+00    0    1.20e+00
2006 09 23  1155    54001   42900      0    1.69e+00    0    1.17e+00
2006 09 23  1200    54001   43200      0    1.68e+00    0    1.18e+00
2006 09 23  1205    54001   43500      0    1.73e+00    0    1.22e+00
2006 09 23  1210    54001   43800      0    1.73e+00    0    1.22e+00
2006 09 23  1215    54001   44100      0    1.74e+00    0    1.22e+00
2006 09 23  1220    54001   44400      0    1.73e+00    0    1.22e+00
2006 09 23  1225    54001   44700      0    1.71e+00    0    1.21e+00
2006 09 23  1230    54001   45000      0    1.73e+00    0    1.21e+00
2006 09 23  1235    54001   45300      0    1.71e+00    0    1.20e+00
2006 09 23  1240    54001   45600      0    1.74e+00    0    1.20e+00
2006 09 23  1245    54001   45900      0    1.71e+00    0    1.18e+00
2006 09 23  1250    54001   46200      0    1.70e+00    0    1.19e+00
2006 09 23  1255    54001   46500      0    1.73e+00    0    1.22e+00
2006 09 23  1300    54001   46800      0    1.73e+00    0    1.21e+00
2006 09 23  1305    54001   47100      0    1.69e+00    0    1.18e+00
2006 09 23  1310    54001   47400      0    1.72e+00    0    1.20e+00
2006 09 23  1315    54001   47700      0    1.75e+00    0    1.22e+00
2006 09 23  1320    54001   48000      0    1.69e+00    0    1.18e+00
2006 09 23  1325    54001   48300      0    1.73e+00    0    1.22e+00
2006 09 23  1330    54001   48600      0    1.69e+00    0    1.18e+00
2006 09 23  1335    54001   48900      0    1.69e+00    0    1.18e+00
2006 09 23  1340    54001   49200      0    1.70e+00    0    1.20e+00
2006 09 23  1345    54001   49500      0    1.70e+00    0    1.19e+00
2006 09 23  1350    54001   49800      0    1.73e+00    0    1.21e+00
2006 09 23  1355    54001   50100      0    1.73e+00    0    1.22e+00
2006 09 23  1400    54001   50400      0    1.70e+00    0    1.19e+00
2006 09 23  1405    54001   50700      0    1.75e+00    0    1.23e+00
2006 09 23  1410    54001   51000      0    1.68e+00    0    1.17e+00
2006 09 23  1415    54001   51300      0    1.73e+00    0    1.22e+00
2006 09 23  1420    54001   51600      0    1.74e+00    0    1.24e+00
2006 09 23  1425    54001   51900      0    1.71e+00    0    1.18e+00
2006 09 23  1430    54001   52200      0    1.76e+00    0    1.24e+00
2006 09 23  1435    54001   52500      0    1.72e+00    0    1.22e+00
2006 09 23  1440    54001   52800      0    1.72e+00    0    1.22e+00
2006 09 23  1445    54001   53100      0    1.73e+00    0    1.21e+00
2006 09 23  1450    54001   53400      0    1.71e+00    0    1.21e+00
2006 09 23  1455    54001   53700      0    1.71e+00    0    1.19e+00
2006 09 23  1500    54001   54000      0    1.73e+00    0    1.21e+00
2006 09 23  1505    54001   54300      0    1.71e+00    0    1.20e+00
2006 09 23  1510    54001   54600      0    1.76e+00    0    1.24e+00
2006 09 23  1515    54001   54900      0    1.68e+00    0    1.18e+00
2006 09 23  1520    54001   55200      0    1.71e+00    0    1.20e+00
2006 09 23  1525    54001   55500      0    1.72e+00    0    1.23e+00
2006 09 23  1530    54001   55800      0    1.72e+00    0    1.21e+00
2006 09 23  1535    54001   56100      0    1.72e+00    0    1.20e+00
2006 09 23  1540    54001   56400      0    1.69e+00    0    1.19e+00
2006 09 23  1545    54001   56700      0    1.71e+00    0    1.20e+00
2006 09 23  1550    54001   57000      0    1.68e+00    0    1.18e+00
2006 09 23  1555    54001   57300      0    1.73e+00    0    1.21e+00
2006 09 23  1600    54001   57600      0    1.69e+00    0    1.19e+00
2006 09 23  1605    54001   57900      0    1.69e+00    0    1.19e+00
2006 09 23  1610    54001   58200      0    1.69e+00    0    1.19e+00
2006 09 23  1615    54001   58500      0    1.70e+00    0    1.20e+00
2006 09 23  1620    54001   58800      0    1.70e+00    0    1.18e+00
2006 09 23  1625    54001   59100      0    1.70e+00    0    1.19e+00
2006 09 23  1630    54001   59400      0    1.70e+00    0    1.19e+00
2006 09 23  1635    54001   59700      0    1.70e+00    0    1.21e+00
2006 09 23  1640    54001   60000      0    1.71e+00    0    1.21e+00
2006 09 23  1645    54001   60300      0    1.61e+00    0    1.13e+00
2006 09 23  1650    54001   60600      0    1.70e+00    0    1.19e+00
2006 09 23  1655    54001   60900      0    1.71e+00    0    1.20e+00
2006 09 23  1700    54001   61200      0    1.71e+00    0    1.21e+00
2006 09 23  1705    54001   61500      0    1.68e+00    0    1.17e+00
2006 09 23  1710    54001   61800      0    1.75e+00    0    1.23e+00
2006 09 23  1715    54001   62100      0    1.67e+00    0    1.17e+00
2006 09 23  1720    54001   62400      0    1.75e+00    0    1.22e+00
2006 09 23  1725    54001   62700      0    1.71e+00    0    1.19e+00
2006 09 23  1730    54001   63000      0    1.67e+00    0    1.17e+00
2006 09 23  1735    54001   63300      0    1.69e+00    0    1.17e+00
2006 09 23  1740    54001   63600      0    1.74e+00    0    1.22e+00
2006 09 23  1745    54001   63900      0    1.71e+00    0    1.21e+00
2006 09 23  1750    54001   64200      0    1.68e+00    0    1.18e+00
2006 09 23  1755    54001   64500      0    1.71e+00    0    1.19e+00
2006 09 23  1800    54001   64800      0    1.69e+00    0    1.19e+00
2006 09 23  1805    54001   65100      0    1.70e+00    0    1.20e+00
2006 09 23  1810    54001   65400      0    1.73e+00    0    1.21e+00
2006 09 23  1815    54001   65700      0    1.73e+00    0    1.20e+00
2006 09 23  1820    54001   66000      0    1.73e+00    0    1.20e+00
2006 09 23  1825    54001   66300      0    1.71e+00    0    1.20e+00
2006 09 23  1830    54001   66600      0    1.71e+00    0    1.20e+00
2006 09 23  1835    54001   66900      0    1.69e+00    0    1.17e+00
2006 09 23  1840    54001   67200      0    1.71e+00    0    1.20e+00
2006 09 23  1845    54001   67500      0    1.69e+00    0    1.18e+00
2006 09 23  1850    54001   67800      0    1.59e+00    0    1.11e+00
2006 09 23  1855    54001   68100      0    1.70e+00    0    1.19e+00
2006 09 23  1900    54001   68400      0    1.65e+00    0    1.14e+00
2006 09 23  1905    54001   68700      0    1.70e+00    0    1.19e+00
2006 09 23  1910    54001   69000      0    1.70e+00    0    1.19e+00
2006 09 23  1915    54001   69300      0    1.69e+00    0    1.18e+00
2006 09 23  1920    54001   69600      0    1.65e+00    0    1.16e+00
2006 09 23  1925    54001   69900      0    1.73e+00    0    1.22e+00
2006 09 23  1930    54001   70200      0    1.70e+00    0    1.19e+00
2006 09 23  1935    54001   70500      0    1.72e+00    0    1.20e+00
2006 09 23  1940    54001   70800      0    1.72e+00    0    1.20e+00
2006 09 23  1945    54001   71100      0    1.70e+00    0    1.17e+00
2006 09 23  1950    54001   71400      0    1.72e+00    0    1.21e+00
2006 09 23  1955    54001   71700      0    1.72e+00    0    1.21e+00
2006 09 23  2000    54001   72000      0    1.71e+00    0    1.22e+00
2006 09 23  2005    54001   72300      0    1.73e+00    0    1.21e+00
2006 09 23  2010    54001   72600      0    1.72e+00    0    1.22e+00
2006 09 23  2015    54001   72900      0    1.70e+00    0    1.19e+00
2006 09 23  2020    54001   73200      0    1.70e+00    0    1.19e+00
2006 09 23  2025    54001   73500      0    1.70e+00    0    1.20e+00
2006 09 23  2030    54001   73800      0    1.73e+00    0    1.21e+00
2006 09 23  2035    54001   74100      0    1.72e+00    0    1.19e+00
2006 09 23  2040    54001   74400      0    1.73e+00    0    1.23e+00
2006 09 23  2045    54001   74700      0    1.67e+00    0    1.16e+00
2006 09 23  2050    54001   75000      0    1.72e+00    0    1.21e+00
2006 09 23  2055    54001   75300      0    1.70e+00    0    1.19e+00
2006 09 23  2100    54001   75600      0    1.62e+00    0    1.14e+00
2006 09 23  2105    54001   75900      0    1.69e+00    0    1.18e+00
2006 09 23  2110    54001   76200      0    1.72e+00    0    1.20e+00
2006 09 23  2115    54001   76500      0    1.69e+00    0    1.19e+00
2006 09 23  2120    54001   76800      0    1.72e+00    0    1.20e+00
2006 09 23  2125    54001   77100      0    1.71e+00    0    1.20e+00
2006 09 23  2130    54001   77400      0    1.66e+00    0    1.17e+00
2006 09 23  2135    54001   77700      0    1.74e+00    0    1.23e+00
2006 09 23  2140    54001   78000      0    1.67e+00    0    1.17e+00
2006 09 23  2145    54001   78300      0    1.73e+00    0    1.21e+00
2006 09 23  2150    54001   78600      0    1.71e+00    0    1.20e+00
2006 09 23  2155    54001   78900      0    1.71e+00    0    1.20e+00
2006 09 23  2200    54001   79200      0    1.68e+00    0    1.17e+00
2006 09 23  2205    54001   79500      0    1.71e+00    0    1.20e+00
2006 09 23  2210    54001   79800      0    1.65e+00    0    1.16e+00
2006 09 23  2215    54001   80100      0    1.68e+00    0    1.18e+00
2006 09 23  2220    54001   80400      0    1.70e+00    0    1.19e+00
2006 09 23  2225    54001   80700      0    1.76e+00    0    1.25e+00
2006 09 23  2230    54001   81000      0    1.73e+00    0    1.21e+00
2006 09 23  2235    54001   81300      0    1.67e+00    0    1.17e+00
2006 09 23  2240    54001   81600      0    1.72e+00    0    1.21e+00
2006 09 23  2245    54001   81900      0    1.73e+00    0    1.22e+00
2006 09 23  2250    54001   82200      0    1.70e+00    0    1.19e+00
2006 09 23  2255    54001   82500      0    1.67e+00    0    1.16e+00
2006 09 23  2300    54001   82800      0    1.72e+00    0    1.20e+00
2006 09 23  2305    54001   83100      0    1.70e+00    0    1.18e+00
2006 09 23  2310    54001   83400      0    1.71e+00    0    1.20e+00
2006 09 23  2315    54001   83700      0    1.73e+00    0    1.21e+00
2006 09 23  2320    54001   84000      0    1.71e+00    0    1.21e+00
2006 09 23  2325    54001   84300      0    1.70e+00    0    1.19e+00
2006 09 23  2330    54001   84600      0    1.64e+00    0    1.15e+00
2006 09 23  2335    54001   84900      0    1.72e+00    0    1.20e+00
2006 09 23  2340    54001   85200      0    1.71e+00    0    1.20e+00
2006 09 23  2345    54001   85500      0    1.68e+00    0    1.17e+00
2006 09 23  2350    54001   85800      0    1.72e+00    0    1.22e+00
2006 09 23  2355    54001   86100      0    1.66e+00    0    1.17e+00
