:Data_list: 20061010_ace_sis_5m.txt
:Created: 2006 Oct 11 0011 UT
# Prepared by the U.S. Dept. of Commerce, NOAA, Space Environment Center.
# Please send comments and suggestions to SEC.Webmaster@noaa.gov 
# 
# Units: proton flux p/cs2-sec-ster
# Status(S): 0 = nominal data, 1 to 8 = bad data record, 9 = no data
# Missing data values: -1.00e+05
# Source: ACE Satellite - Solar Isotope Spectrometer
#
# 5-minute averaged Real-time Integral Flux of High-energy Solar Protons
# 
#                 Modified Seconds
# UT Date   Time   Julian  of the      ---- Integral Proton Flux ----
# YR MO DA  HHMM     Day     Day       S    > 10 MeV    S    > 30 MeV
#--------------------------------------------------------------------
2006 10 10  0000    54018       0      0    1.73e+00    0    1.21e+00
2006 10 10  0005    54018     300      0    1.69e+00    0    1.18e+00
2006 10 10  0010    54018     600      0    1.70e+00    0    1.18e+00
2006 10 10  0015    54018     900      0    1.63e+00    0    1.14e+00
2006 10 10  0020    54018    1200      0    1.72e+00    0    1.19e+00
2006 10 10  0025    54018    1500      0    1.72e+00    0    1.20e+00
2006 10 10  0030    54018    1800      0    1.71e+00    0    1.21e+00
2006 10 10  0035    54018    2100      0    1.73e+00    0    1.22e+00
2006 10 10  0040    54018    2400      0    1.71e+00    0    1.21e+00
2006 10 10  0045    54018    2700      0    1.68e+00    0    1.17e+00
2006 10 10  0050    54018    3000      0    1.70e+00    0    1.19e+00
2006 10 10  0055    54018    3300      0    1.67e+00    0    1.17e+00
2006 10 10  0100    54018    3600      0    1.68e+00    0    1.17e+00
2006 10 10  0105    54018    3900      0    1.72e+00    0    1.21e+00
2006 10 10  0110    54018    4200      0    1.72e+00    0    1.20e+00
2006 10 10  0115    54018    4500      0    1.74e+00    0    1.22e+00
2006 10 10  0120    54018    4800      0    1.73e+00    0    1.22e+00
2006 10 10  0125    54018    5100      0    1.69e+00    0    1.19e+00
2006 10 10  0130    54018    5400      0    1.73e+00    0    1.21e+00
2006 10 10  0135    54018    5700      0    1.71e+00    0    1.19e+00
2006 10 10  0140    54018    6000      0    1.66e+00    0    1.16e+00
2006 10 10  0145    54018    6300      0    1.69e+00    0    1.18e+00
2006 10 10  0150    54018    6600      0    1.72e+00    0    1.21e+00
2006 10 10  0155    54018    6900      0    1.68e+00    0    1.18e+00
2006 10 10  0200    54018    7200      0    1.72e+00    0    1.20e+00
2006 10 10  0205    54018    7500      0    1.74e+00    0    1.22e+00
2006 10 10  0210    54018    7800      0    1.72e+00    0    1.20e+00
2006 10 10  0215    54018    8100      0    1.71e+00    0    1.19e+00
2006 10 10  0220    54018    8400      0    1.75e+00    0    1.22e+00
2006 10 10  0225    54018    8700      0    1.71e+00    0    1.21e+00
2006 10 10  0230    54018    9000      0    1.68e+00    0    1.17e+00
2006 10 10  0235    54018    9300      0    1.67e+00    0    1.18e+00
2006 10 10  0240    54018    9600      0    1.69e+00    0    1.19e+00
2006 10 10  0245    54018    9900      0    1.74e+00    0    1.22e+00
2006 10 10  0250    54018   10200      0    1.73e+00    0    1.22e+00
2006 10 10  0255    54018   10500      0    1.75e+00    0    1.23e+00
2006 10 10  0300    54018   10800      0    1.72e+00    0    1.19e+00
2006 10 10  0305    54018   11100      0    1.71e+00    0    1.19e+00
2006 10 10  0310    54018   11400      0    1.69e+00    0    1.19e+00
2006 10 10  0315    54018   11700      0    1.73e+00    0    1.21e+00
2006 10 10  0320    54018   12000      0    1.75e+00    0    1.23e+00
2006 10 10  0325    54018   12300      0    1.71e+00    0    1.19e+00
2006 10 10  0330    54018   12600      0    1.70e+00    0    1.19e+00
2006 10 10  0335    54018   12900      0    1.69e+00    0    1.19e+00
2006 10 10  0340    54018   13200      0    1.68e+00    0    1.18e+00
2006 10 10  0345    54018   13500      0    1.67e+00    0    1.18e+00
2006 10 10  0350    54018   13800      0    1.72e+00    0    1.22e+00
2006 10 10  0355    54018   14100      0    1.75e+00    0    1.23e+00
2006 10 10  0400    54018   14400      0    1.74e+00    0    1.22e+00
2006 10 10  0405    54018   14700      0    1.71e+00    0    1.20e+00
2006 10 10  0410    54018   15000      0    1.68e+00    0    1.17e+00
2006 10 10  0415    54018   15300      0    1.72e+00    0    1.21e+00
2006 10 10  0420    54018   15600      0    1.70e+00    0    1.19e+00
2006 10 10  0425    54018   15900      0    1.71e+00    0    1.20e+00
2006 10 10  0430    54018   16200      0    1.72e+00    0    1.21e+00
2006 10 10  0435    54018   16500      0    1.71e+00    0    1.20e+00
2006 10 10  0440    54018   16800      0    1.66e+00    0    1.17e+00
2006 10 10  0445    54018   17100      0    1.70e+00    0    1.19e+00
2006 10 10  0450    54018   17400      0    1.68e+00    0    1.18e+00
2006 10 10  0455    54018   17700      0    1.67e+00    0    1.17e+00
2006 10 10  0500    54018   18000      0    1.72e+00    0    1.22e+00
2006 10 10  0505    54018   18300      0    1.68e+00    0    1.19e+00
2006 10 10  0510    54018   18600      0    1.67e+00    0    1.17e+00
2006 10 10  0515    54018   18900      0    1.72e+00    0    1.22e+00
2006 10 10  0520    54018   19200      0    1.71e+00    0    1.21e+00
2006 10 10  0525    54018   19500      0    1.69e+00    0    1.19e+00
2006 10 10  0530    54018   19800      0    1.70e+00    0    1.20e+00
2006 10 10  0535    54018   20100      0    1.69e+00    0    1.18e+00
2006 10 10  0540    54018   20400      0    1.70e+00    0    1.19e+00
2006 10 10  0545    54018   20700      0    1.73e+00    0    1.20e+00
2006 10 10  0550    54018   21000      0    1.69e+00    0    1.19e+00
2006 10 10  0555    54018   21300      0    1.74e+00    0    1.22e+00
2006 10 10  0600    54018   21600      0    1.74e+00    0    1.23e+00
2006 10 10  0605    54018   21900      0    1.70e+00    0    1.19e+00
2006 10 10  0610    54018   22200      0    1.72e+00    0    1.20e+00
2006 10 10  0615    54018   22500      0    1.68e+00    0    1.18e+00
2006 10 10  0620    54018   22800      0    1.74e+00    0    1.20e+00
2006 10 10  0625    54018   23100      0    1.71e+00    0    1.18e+00
2006 10 10  0630    54018   23400      0    1.70e+00    0    1.19e+00
2006 10 10  0635    54018   23700      0    1.73e+00    0    1.21e+00
2006 10 10  0640    54018   24000      0    1.68e+00    0    1.18e+00
2006 10 10  0645    54018   24300      0    1.69e+00    0    1.18e+00
2006 10 10  0650    54018   24600      0    1.67e+00    0    1.17e+00
2006 10 10  0655    54018   24900      0    1.71e+00    0    1.19e+00
2006 10 10  0700    54018   25200      0    1.72e+00    0    1.22e+00
2006 10 10  0705    54018   25500      0    1.72e+00    0    1.21e+00
2006 10 10  0710    54018   25800      0    1.73e+00    0    1.22e+00
2006 10 10  0715    54018   26100      0    1.70e+00    0    1.18e+00
2006 10 10  0720    54018   26400      0    1.68e+00    0    1.17e+00
2006 10 10  0725    54018   26700      0    1.70e+00    0    1.19e+00
2006 10 10  0730    54018   27000      0    1.70e+00    0    1.19e+00
2006 10 10  0735    54018   27300      9   -1.00e+05    9   -1.00e+05
2006 10 10  0740    54018   27600      0    1.70e+00    0    1.19e+00
2006 10 10  0745    54018   27900      0    1.70e+00    0    1.19e+00
2006 10 10  0750    54018   28200      0    1.71e+00    0    1.19e+00
2006 10 10  0755    54018   28500      0    1.70e+00    0    1.19e+00
2006 10 10  0800    54018   28800      0    1.71e+00    0    1.20e+00
2006 10 10  0805    54018   29100      0    1.68e+00    0    1.18e+00
2006 10 10  0810    54018   29400      0    1.75e+00    0    1.23e+00
2006 10 10  0815    54018   29700      0    1.69e+00    0    1.18e+00
2006 10 10  0820    54018   30000      0    1.70e+00    0    1.18e+00
2006 10 10  0825    54018   30300      0    1.72e+00    0    1.21e+00
2006 10 10  0830    54018   30600      0    1.70e+00    0    1.19e+00
2006 10 10  0835    54018   30900      0    1.71e+00    0    1.19e+00
2006 10 10  0840    54018   31200      0    1.70e+00    0    1.20e+00
2006 10 10  0845    54018   31500      0    1.71e+00    0    1.20e+00
2006 10 10  0850    54018   31800      0    1.71e+00    0    1.20e+00
2006 10 10  0855    54018   32100      0    1.71e+00    0    1.19e+00
2006 10 10  0900    54018   32400      0    1.72e+00    0    1.20e+00
2006 10 10  0905    54018   32700      0    1.73e+00    0    1.21e+00
2006 10 10  0910    54018   33000      0    1.68e+00    0    1.18e+00
2006 10 10  0915    54018   33300      0    1.71e+00    0    1.20e+00
2006 10 10  0920    54018   33600      0    1.69e+00    0    1.20e+00
2006 10 10  0925    54018   33900      0    1.73e+00    0    1.22e+00
2006 10 10  0930    54018   34200      0    1.67e+00    0    1.17e+00
2006 10 10  0935    54018   34500      0    1.72e+00    0    1.21e+00
2006 10 10  0940    54018   34800      0    1.74e+00    0    1.22e+00
2006 10 10  0945    54018   35100      0    1.70e+00    0    1.20e+00
2006 10 10  0950    54018   35400      0    1.75e+00    0    1.23e+00
2006 10 10  0955    54018   35700      0    1.70e+00    0    1.19e+00
2006 10 10  1000    54018   36000      0    1.70e+00    0    1.18e+00
2006 10 10  1005    54018   36300      0    1.72e+00    0    1.21e+00
2006 10 10  1010    54018   36600      0    1.68e+00    0    1.16e+00
2006 10 10  1015    54018   36900      0    1.68e+00    0    1.18e+00
2006 10 10  1020    54018   37200      0    1.69e+00    0    1.19e+00
2006 10 10  1025    54018   37500      0    1.74e+00    0    1.22e+00
2006 10 10  1030    54018   37800      0    1.68e+00    0    1.17e+00
2006 10 10  1035    54018   38100      0    1.74e+00    0    1.23e+00
2006 10 10  1040    54018   38400      0    1.71e+00    0    1.19e+00
2006 10 10  1045    54018   38700      0    1.71e+00    0    1.19e+00
2006 10 10  1050    54018   39000      0    1.72e+00    0    1.22e+00
2006 10 10  1055    54018   39300      0    1.71e+00    0    1.19e+00
2006 10 10  1100    54018   39600      0    1.73e+00    0    1.20e+00
2006 10 10  1105    54018   39900      0    1.69e+00    0    1.18e+00
2006 10 10  1110    54018   40200      0    1.69e+00    0    1.19e+00
2006 10 10  1115    54018   40500      0    1.72e+00    0    1.21e+00
2006 10 10  1120    54018   40800      0    1.69e+00    0    1.19e+00
2006 10 10  1125    54018   41100      0    1.87e+00    0    1.21e+00
2006 10 10  1130    54018   41400      0    1.67e+00    0    1.17e+00
2006 10 10  1135    54018   41700      0    1.71e+00    0    1.22e+00
2006 10 10  1140    54018   42000      0    1.69e+00    0    1.19e+00
2006 10 10  1145    54018   42300      0    1.72e+00    0    1.21e+00
2006 10 10  1150    54018   42600      0    1.67e+00    0    1.16e+00
2006 10 10  1155    54018   42900      0    1.73e+00    0    1.21e+00
2006 10 10  1200    54018   43200      0    1.74e+00    0    1.23e+00
2006 10 10  1205    54018   43500      0    1.71e+00    0    1.19e+00
2006 10 10  1210    54018   43800      0    1.71e+00    0    1.21e+00
2006 10 10  1215    54018   44100      0    1.71e+00    0    1.20e+00
2006 10 10  1220    54018   44400      0    1.76e+00    0    1.25e+00
2006 10 10  1225    54018   44700      0    1.67e+00    0    1.18e+00
2006 10 10  1230    54018   45000      0    1.68e+00    0    1.18e+00
2006 10 10  1235    54018   45300      0    1.67e+00    0    1.17e+00
2006 10 10  1240    54018   45600      0    1.71e+00    0    1.20e+00
2006 10 10  1245    54018   45900      0    1.71e+00    0    1.20e+00
2006 10 10  1250    54018   46200      0    1.70e+00    0    1.20e+00
2006 10 10  1255    54018   46500      0    1.74e+00    0    1.22e+00
2006 10 10  1300    54018   46800      0    1.73e+00    0    1.20e+00
2006 10 10  1305    54018   47100      0    1.74e+00    0    1.24e+00
2006 10 10  1310    54018   47400      0    1.72e+00    0    1.20e+00
2006 10 10  1315    54018   47700      0    1.77e+00    0    1.25e+00
2006 10 10  1320    54018   48000      0    1.73e+00    0    1.20e+00
2006 10 10  1325    54018   48300      0    1.71e+00    0    1.20e+00
2006 10 10  1330    54018   48600      0    1.66e+00    0    1.15e+00
2006 10 10  1335    54018   48900      0    1.69e+00    0    1.19e+00
2006 10 10  1340    54018   49200      0    1.70e+00    0    1.18e+00
2006 10 10  1345    54018   49500      0    1.73e+00    0    1.20e+00
2006 10 10  1350    54018   49800      0    1.75e+00    0    1.22e+00
2006 10 10  1355    54018   50100      0    1.72e+00    0    1.21e+00
2006 10 10  1400    54018   50400      0    1.76e+00    0    1.22e+00
2006 10 10  1405    54018   50700      0    1.73e+00    0    1.21e+00
2006 10 10  1410    54018   51000      0    1.76e+00    0    1.24e+00
2006 10 10  1415    54018   51300      0    1.72e+00    0    1.21e+00
2006 10 10  1420    54018   51600      0    1.71e+00    0    1.20e+00
2006 10 10  1425    54018   51900      0    1.71e+00    0    1.20e+00
2006 10 10  1430    54018   52200      0    1.70e+00    0    1.20e+00
2006 10 10  1435    54018   52500      0    1.68e+00    0    1.18e+00
2006 10 10  1440    54018   52800      0    1.70e+00    0    1.20e+00
2006 10 10  1445    54018   53100      0    1.73e+00    0    1.22e+00
2006 10 10  1450    54018   53400      0    1.70e+00    0    1.19e+00
2006 10 10  1455    54018   53700      0    1.69e+00    0    1.20e+00
2006 10 10  1500    54018   54000      0    1.74e+00    0    1.23e+00
2006 10 10  1505    54018   54300      0    1.73e+00    0    1.21e+00
2006 10 10  1510    54018   54600      0    1.70e+00    0    1.20e+00
2006 10 10  1515    54018   54900      0    1.72e+00    0    1.21e+00
2006 10 10  1520    54018   55200      0    1.73e+00    0    1.22e+00
2006 10 10  1525    54018   55500      0    1.69e+00    0    1.19e+00
2006 10 10  1530    54018   55800      0    1.72e+00    0    1.21e+00
2006 10 10  1535    54018   56100      0    1.69e+00    0    1.18e+00
2006 10 10  1540    54018   56400      0    1.71e+00    0    1.20e+00
2006 10 10  1545    54018   56700      0    1.66e+00    0    1.16e+00
2006 10 10  1550    54018   57000      0    1.68e+00    0    1.18e+00
2006 10 10  1555    54018   57300      0    1.72e+00    0    1.21e+00
2006 10 10  1600    54018   57600      9   -1.00e+05    9   -1.00e+05
2006 10 10  1605    54018   57900      9   -1.00e+05    9   -1.00e+05
2006 10 10  1610    54018   58200      0    1.73e+00    0    1.22e+00
2006 10 10  1615    54018   58500      0    1.72e+00    0    1.21e+00
2006 10 10  1620    54018   58800      0    1.71e+00    0    1.20e+00
2006 10 10  1625    54018   59100      0    1.71e+00    0    1.19e+00
2006 10 10  1630    54018   59400      0    1.72e+00    0    1.20e+00
2006 10 10  1635    54018   59700      0    1.67e+00    0    1.18e+00
2006 10 10  1640    54018   60000      9   -1.00e+05    9   -1.00e+05
2006 10 10  1645    54018   60300      0    1.76e+00    0    1.25e+00
2006 10 10  1650    54018   60600      0    1.71e+00    0    1.19e+00
2006 10 10  1655    54018   60900      0    1.69e+00    0    1.19e+00
2006 10 10  1700    54018   61200      0    1.70e+00    0    1.17e+00
2006 10 10  1705    54018   61500      0    1.72e+00    0    1.20e+00
2006 10 10  1710    54018   61800      0    1.67e+00    0    1.18e+00
2006 10 10  1715    54018   62100      0    1.71e+00    0    1.20e+00
2006 10 10  1720    54018   62400      0    1.69e+00    0    1.18e+00
2006 10 10  1725    54018   62700      0    1.71e+00    0    1.20e+00
2006 10 10  1730    54018   63000      0    1.71e+00    0    1.20e+00
2006 10 10  1735    54018   63300      0    1.70e+00    0    1.18e+00
2006 10 10  1740    54018   63600      0    1.70e+00    0    1.20e+00
2006 10 10  1745    54018   63900      0    1.68e+00    0    1.18e+00
2006 10 10  1750    54018   64200      0    1.70e+00    0    1.19e+00
2006 10 10  1755    54018   64500      0    1.73e+00    0    1.22e+00
2006 10 10  1800    54018   64800      0    1.71e+00    0    1.19e+00
2006 10 10  1805    54018   65100      0    1.70e+00    0    1.19e+00
2006 10 10  1810    54018   65400      0    1.70e+00    0    1.20e+00
2006 10 10  1815    54018   65700      0    1.71e+00    0    1.20e+00
2006 10 10  1820    54018   66000      0    1.71e+00    0    1.19e+00
2006 10 10  1825    54018   66300      0    1.75e+00    0    1.24e+00
2006 10 10  1830    54018   66600      0    1.67e+00    0    1.17e+00
2006 10 10  1835    54018   66900      0    1.67e+00    0    1.17e+00
2006 10 10  1840    54018   67200      0    1.73e+00    0    1.22e+00
2006 10 10  1845    54018   67500      0    1.73e+00    0    1.21e+00
2006 10 10  1850    54018   67800      0    1.69e+00    0    1.18e+00
2006 10 10  1855    54018   68100      0    1.71e+00    0    1.20e+00
2006 10 10  1900    54018   68400      0    1.70e+00    0    1.20e+00
2006 10 10  1905    54018   68700      0    1.72e+00    0    1.21e+00
2006 10 10  1910    54018   69000      0    1.70e+00    0    1.19e+00
2006 10 10  1915    54018   69300      0    1.70e+00    0    1.21e+00
2006 10 10  1920    54018   69600      0    1.72e+00    0    1.20e+00
2006 10 10  1925    54018   69900      0    1.71e+00    0    1.21e+00
2006 10 10  1930    54018   70200      0    1.73e+00    0    1.22e+00
2006 10 10  1935    54018   70500      0    1.69e+00    0    1.19e+00
2006 10 10  1940    54018   70800      0    1.72e+00    0    1.21e+00
2006 10 10  1945    54018   71100      0    1.71e+00    0    1.21e+00
2006 10 10  1950    54018   71400      0    1.68e+00    0    1.18e+00
2006 10 10  1955    54018   71700      0    1.70e+00    0    1.18e+00
2006 10 10  2000    54018   72000      0    1.72e+00    0    1.21e+00
2006 10 10  2005    54018   72300      0    1.68e+00    0    1.17e+00
2006 10 10  2010    54018   72600      0    1.70e+00    0    1.19e+00
2006 10 10  2015    54018   72900      0    1.75e+00    0    1.22e+00
2006 10 10  2020    54018   73200      0    1.69e+00    0    1.19e+00
2006 10 10  2025    54018   73500      0    1.70e+00    0    1.19e+00
2006 10 10  2030    54018   73800      0    1.70e+00    0    1.18e+00
2006 10 10  2035    54018   74100      0    1.70e+00    0    1.18e+00
2006 10 10  2040    54018   74400      0    1.69e+00    0    1.18e+00
2006 10 10  2045    54018   74700      0    1.69e+00    0    1.18e+00
2006 10 10  2050    54018   75000      0    1.72e+00    0    1.20e+00
2006 10 10  2055    54018   75300      0    1.74e+00    0    1.22e+00
2006 10 10  2100    54018   75600      0    1.73e+00    0    1.21e+00
2006 10 10  2105    54018   75900      0    1.71e+00    0    1.20e+00
2006 10 10  2110    54018   76200      0    1.71e+00    0    1.20e+00
2006 10 10  2115    54018   76500      0    1.73e+00    0    1.22e+00
2006 10 10  2120    54018   76800      0    1.67e+00    0    1.17e+00
2006 10 10  2125    54018   77100      0    1.68e+00    0    1.18e+00
2006 10 10  2130    54018   77400      0    1.71e+00    0    1.20e+00
2006 10 10  2135    54018   77700      0    1.72e+00    0    1.20e+00
2006 10 10  2140    54018   78000      0    1.69e+00    0    1.18e+00
2006 10 10  2145    54018   78300      0    1.68e+00    0    1.17e+00
2006 10 10  2150    54018   78600      0    1.67e+00    0    1.16e+00
2006 10 10  2155    54018   78900      0    1.77e+00    0    1.25e+00
2006 10 10  2200    54018   79200      9   -1.00e+05    9   -1.00e+05
2006 10 10  2205    54018   79500      9   -1.00e+05    9   -1.00e+05
2006 10 10  2210    54018   79800      9   -1.00e+05    9   -1.00e+05
2006 10 10  2215    54018   80100      9   -1.00e+05    9   -1.00e+05
2006 10 10  2220    54018   80400      9   -1.00e+05    9   -1.00e+05
2006 10 10  2225    54018   80700      9   -1.00e+05    9   -1.00e+05
2006 10 10  2230    54018   81000      0    1.72e+00    0    1.20e+00
2006 10 10  2235    54018   81300      0    1.68e+00    0    1.17e+00
2006 10 10  2240    54018   81600      0    1.70e+00    0    1.19e+00
2006 10 10  2245    54018   81900      0    1.70e+00    0    1.19e+00
2006 10 10  2250    54018   82200      0    1.68e+00    0    1.18e+00
2006 10 10  2255    54018   82500      0    1.69e+00    0    1.17e+00
2006 10 10  2300    54018   82800      0    1.73e+00    0    1.21e+00
2006 10 10  2305    54018   83100      0    1.66e+00    0    1.17e+00
2006 10 10  2310    54018   83400      0    1.67e+00    0    1.17e+00
2006 10 10  2315    54018   83700      0    1.71e+00    0    1.19e+00
2006 10 10  2320    54018   84000      0    1.69e+00    0    1.19e+00
2006 10 10  2325    54018   84300      0    1.72e+00    0    1.21e+00
2006 10 10  2330    54018   84600      0    1.73e+00    0    1.21e+00
2006 10 10  2335    54018   84900      0    1.71e+00    0    1.20e+00
2006 10 10  2340    54018   85200      0    1.69e+00    0    1.18e+00
2006 10 10  2345    54018   85500      0    1.71e+00    0    1.20e+00
2006 10 10  2350    54018   85800      0    1.71e+00    0    1.19e+00
2006 10 10  2355    54018   86100      0    1.67e+00    0    1.15e+00
