:Data_list: 20061111_ace_sis_5m.txt
:Created: 2006 Nov 12 0011 UT
# Prepared by the U.S. Dept. of Commerce, NOAA, Space Environment Center.
# Please send comments and suggestions to SEC.Webmaster@noaa.gov 
# 
# Units: proton flux p/cs2-sec-ster
# Status(S): 0 = nominal data, 1 to 8 = bad data record, 9 = no data
# Missing data values: -1.00e+05
# Source: ACE Satellite - Solar Isotope Spectrometer
#
# 5-minute averaged Real-time Integral Flux of High-energy Solar Protons
# 
#                 Modified Seconds
# UT Date   Time   Julian  of the      ---- Integral Proton Flux ----
# YR MO DA  HHMM     Day     Day       S    > 10 MeV    S    > 30 MeV
#--------------------------------------------------------------------
2006 11 11  0000    54050       0      0    1.69e+00    0    1.15e+00
2006 11 11  0005    54050     300      0    1.69e+00    0    1.16e+00
2006 11 11  0010    54050     600      0    1.72e+00    0    1.18e+00
2006 11 11  0015    54050     900      0    1.76e+00    0    1.20e+00
2006 11 11  0020    54050    1200      0    1.72e+00    0    1.19e+00
2006 11 11  0025    54050    1500      0    1.74e+00    0    1.19e+00
2006 11 11  0030    54050    1800      0    1.73e+00    0    1.19e+00
2006 11 11  0035    54050    2100      0    1.73e+00    0    1.18e+00
2006 11 11  0040    54050    2400      0    1.70e+00    0    1.16e+00
2006 11 11  0045    54050    2700      0    1.72e+00    0    1.17e+00
2006 11 11  0050    54050    3000      0    1.71e+00    0    1.18e+00
2006 11 11  0055    54050    3300      0    1.70e+00    0    1.18e+00
2006 11 11  0100    54050    3600      9   -1.00e+05    9   -1.00e+05
2006 11 11  0105    54050    3900      9   -1.00e+05    9   -1.00e+05
2006 11 11  0110    54050    4200      9   -1.00e+05    9   -1.00e+05
2006 11 11  0115    54050    4500      9   -1.00e+05    9   -1.00e+05
2006 11 11  0120    54050    4800      9   -1.00e+05    9   -1.00e+05
2006 11 11  0125    54050    5100      9   -1.00e+05    9   -1.00e+05
2006 11 11  0130    54050    5400      0    1.74e+00    0    1.18e+00
2006 11 11  0135    54050    5700      0    1.70e+00    0    1.17e+00
2006 11 11  0140    54050    6000      0    1.67e+00    0    1.14e+00
2006 11 11  0145    54050    6300      0    1.74e+00    0    1.18e+00
2006 11 11  0150    54050    6600      0    1.72e+00    0    1.18e+00
2006 11 11  0155    54050    6900      0    1.69e+00    0    1.14e+00
2006 11 11  0200    54050    7200      0    1.73e+00    0    1.19e+00
2006 11 11  0205    54050    7500      0    1.72e+00    0    1.19e+00
2006 11 11  0210    54050    7800      0    1.72e+00    0    1.18e+00
2006 11 11  0215    54050    8100      0    1.68e+00    0    1.14e+00
2006 11 11  0220    54050    8400      0    1.70e+00    0    1.16e+00
2006 11 11  0225    54050    8700      0    1.69e+00    0    1.15e+00
2006 11 11  0230    54050    9000      0    1.70e+00    0    1.17e+00
2006 11 11  0235    54050    9300      0    1.67e+00    0    1.14e+00
2006 11 11  0240    54050    9600      0    1.70e+00    0    1.15e+00
2006 11 11  0245    54050    9900      0    1.67e+00    0    1.16e+00
2006 11 11  0250    54050   10200      0    1.69e+00    0    1.16e+00
2006 11 11  0255    54050   10500      0    1.71e+00    0    1.17e+00
2006 11 11  0300    54050   10800      0    1.66e+00    0    1.12e+00
2006 11 11  0305    54050   11100      0    1.69e+00    0    1.16e+00
2006 11 11  0310    54050   11400      0    1.72e+00    0    1.18e+00
2006 11 11  0315    54050   11700      0    1.69e+00    0    1.18e+00
2006 11 11  0320    54050   12000      0    1.71e+00    0    1.18e+00
2006 11 11  0325    54050   12300      0    1.73e+00    0    1.17e+00
2006 11 11  0330    54050   12600      0    1.71e+00    0    1.17e+00
2006 11 11  0335    54050   12900      0    1.72e+00    0    1.17e+00
2006 11 11  0340    54050   13200      0    1.70e+00    0    1.16e+00
2006 11 11  0345    54050   13500      0    1.71e+00    0    1.17e+00
2006 11 11  0350    54050   13800      0    1.71e+00    0    1.16e+00
2006 11 11  0355    54050   14100      0    1.67e+00    0    1.14e+00
2006 11 11  0400    54050   14400      0    1.69e+00    0    1.15e+00
2006 11 11  0405    54050   14700      0    1.72e+00    0    1.19e+00
2006 11 11  0410    54050   15000      0    1.72e+00    0    1.18e+00
2006 11 11  0415    54050   15300      0    1.71e+00    0    1.18e+00
2006 11 11  0420    54050   15600      0    1.70e+00    0    1.16e+00
2006 11 11  0425    54050   15900      0    1.69e+00    0    1.16e+00
2006 11 11  0430    54050   16200      0    1.71e+00    0    1.17e+00
2006 11 11  0435    54050   16500      0    1.74e+00    0    1.18e+00
2006 11 11  0440    54050   16800      0    1.70e+00    0    1.15e+00
2006 11 11  0445    54050   17100      0    1.72e+00    0    1.17e+00
2006 11 11  0450    54050   17400      0    1.75e+00    0    1.20e+00
2006 11 11  0455    54050   17700      0    1.70e+00    0    1.16e+00
2006 11 11  0500    54050   18000      0    1.72e+00    0    1.18e+00
2006 11 11  0505    54050   18300      0    1.81e+00    0    1.29e+00
2006 11 11  0510    54050   18600      0    1.77e+00    0    1.20e+00
2006 11 11  0515    54050   18900      0    1.72e+00    0    1.18e+00
2006 11 11  0520    54050   19200      0    1.71e+00    0    1.18e+00
2006 11 11  0525    54050   19500      0    1.70e+00    0    1.15e+00
2006 11 11  0530    54050   19800      0    1.68e+00    0    1.15e+00
2006 11 11  0535    54050   20100      0    1.71e+00    0    1.17e+00
2006 11 11  0540    54050   20400      0    1.71e+00    0    1.17e+00
2006 11 11  0545    54050   20700      0    1.73e+00    0    1.17e+00
2006 11 11  0550    54050   21000      0    1.71e+00    0    1.16e+00
2006 11 11  0555    54050   21300      0    1.69e+00    0    1.15e+00
2006 11 11  0600    54050   21600      0    1.69e+00    0    1.15e+00
2006 11 11  0605    54050   21900      0    1.66e+00    0    1.12e+00
2006 11 11  0610    54050   22200      0    1.68e+00    0    1.15e+00
2006 11 11  0615    54050   22500      0    1.69e+00    0    1.17e+00
2006 11 11  0620    54050   22800      0    1.69e+00    0    1.15e+00
2006 11 11  0625    54050   23100      0    1.68e+00    0    1.15e+00
2006 11 11  0630    54050   23400      0    1.67e+00    0    1.14e+00
2006 11 11  0635    54050   23700      0    1.71e+00    0    1.17e+00
2006 11 11  0640    54050   24000      0    1.72e+00    0    1.17e+00
2006 11 11  0645    54050   24300      0    1.73e+00    0    1.19e+00
2006 11 11  0650    54050   24600      0    1.71e+00    0    1.17e+00
2006 11 11  0655    54050   24900      0    1.67e+00    0    1.13e+00
2006 11 11  0700    54050   25200      0    1.68e+00    0    1.14e+00
2006 11 11  0705    54050   25500      0    1.69e+00    0    1.16e+00
2006 11 11  0710    54050   25800      0    1.69e+00    0    1.17e+00
2006 11 11  0715    54050   26100      0    1.68e+00    0    1.15e+00
2006 11 11  0720    54050   26400      0    1.69e+00    0    1.15e+00
2006 11 11  0725    54050   26700      0    1.68e+00    0    1.14e+00
2006 11 11  0730    54050   27000      0    1.74e+00    0    1.21e+00
2006 11 11  0735    54050   27300      0    1.67e+00    0    1.16e+00
2006 11 11  0740    54050   27600      0    1.71e+00    0    1.19e+00
2006 11 11  0745    54050   27900      0    1.68e+00    0    1.15e+00
2006 11 11  0750    54050   28200      0    1.69e+00    0    1.16e+00
2006 11 11  0755    54050   28500      0    1.74e+00    0    1.20e+00
2006 11 11  0800    54050   28800      0    1.73e+00    0    1.19e+00
2006 11 11  0805    54050   29100      0    1.72e+00    0    1.18e+00
2006 11 11  0810    54050   29400      0    1.70e+00    0    1.16e+00
2006 11 11  0815    54050   29700      0    1.69e+00    0    1.17e+00
2006 11 11  0820    54050   30000      0    1.74e+00    0    1.19e+00
2006 11 11  0825    54050   30300      0    1.70e+00    0    1.16e+00
2006 11 11  0830    54050   30600      0    1.68e+00    0    1.16e+00
2006 11 11  0835    54050   30900      0    1.67e+00    0    1.16e+00
2006 11 11  0840    54050   31200      0    1.69e+00    0    1.16e+00
2006 11 11  0845    54050   31500      0    1.72e+00    0    1.17e+00
2006 11 11  0850    54050   31800      0    1.71e+00    0    1.17e+00
2006 11 11  0855    54050   32100      0    1.69e+00    0    1.16e+00
2006 11 11  0900    54050   32400      0    1.68e+00    0    1.15e+00
2006 11 11  0905    54050   32700      0    1.70e+00    0    1.16e+00
2006 11 11  0910    54050   33000      0    1.73e+00    0    1.19e+00
2006 11 11  0915    54050   33300      0    1.68e+00    0    1.15e+00
2006 11 11  0920    54050   33600      0    1.69e+00    0    1.16e+00
2006 11 11  0925    54050   33900      0    1.67e+00    0    1.16e+00
2006 11 11  0930    54050   34200      0    1.69e+00    0    1.16e+00
2006 11 11  0935    54050   34500      0    1.67e+00    0    1.14e+00
2006 11 11  0940    54050   34800      0    1.69e+00    0    1.16e+00
2006 11 11  0945    54050   35100      0    1.69e+00    0    1.15e+00
2006 11 11  0950    54050   35400      0    1.64e+00    0    1.12e+00
2006 11 11  0955    54050   35700      0    1.68e+00    0    1.15e+00
2006 11 11  1000    54050   36000      0    1.68e+00    0    1.15e+00
2006 11 11  1005    54050   36300      0    1.70e+00    0    1.17e+00
2006 11 11  1010    54050   36600      0    1.67e+00    0    1.14e+00
2006 11 11  1015    54050   36900      0    1.68e+00    0    1.15e+00
2006 11 11  1020    54050   37200      0    1.69e+00    0    1.16e+00
2006 11 11  1025    54050   37500      0    1.65e+00    0    1.13e+00
2006 11 11  1030    54050   37800      0    1.69e+00    0    1.16e+00
2006 11 11  1035    54050   38100      0    1.68e+00    0    1.16e+00
2006 11 11  1040    54050   38400      0    1.72e+00    0    1.19e+00
2006 11 11  1045    54050   38700      0    1.69e+00    0    1.16e+00
2006 11 11  1050    54050   39000      0    1.72e+00    0    1.19e+00
2006 11 11  1055    54050   39300      0    1.69e+00    0    1.15e+00
2006 11 11  1100    54050   39600      0    1.71e+00    0    1.17e+00
2006 11 11  1105    54050   39900      0    1.70e+00    0    1.17e+00
2006 11 11  1110    54050   40200      0    1.69e+00    0    1.17e+00
2006 11 11  1115    54050   40500      0    1.73e+00    0    1.19e+00
2006 11 11  1120    54050   40800      0    1.68e+00    0    1.17e+00
2006 11 11  1125    54050   41100      0    1.68e+00    0    1.14e+00
2006 11 11  1130    54050   41400      0    1.69e+00    0    1.17e+00
2006 11 11  1135    54050   41700      0    1.69e+00    0    1.17e+00
2006 11 11  1140    54050   42000      0    1.70e+00    0    1.17e+00
2006 11 11  1145    54050   42300      0    1.73e+00    0    1.19e+00
2006 11 11  1150    54050   42600      0    1.66e+00    0    1.14e+00
2006 11 11  1155    54050   42900      0    1.72e+00    0    1.20e+00
2006 11 11  1200    54050   43200      0    1.72e+00    0    1.18e+00
2006 11 11  1205    54050   43500      0    1.70e+00    0    1.17e+00
2006 11 11  1210    54050   43800      0    1.68e+00    0    1.14e+00
2006 11 11  1215    54050   44100      0    1.69e+00    0    1.17e+00
2006 11 11  1220    54050   44400      0    1.74e+00    0    1.20e+00
2006 11 11  1225    54050   44700      0    1.72e+00    0    1.18e+00
2006 11 11  1230    54050   45000      0    1.72e+00    0    1.18e+00
2006 11 11  1235    54050   45300      0    1.70e+00    0    1.17e+00
2006 11 11  1240    54050   45600      0    1.70e+00    0    1.17e+00
2006 11 11  1245    54050   45900      0    1.73e+00    0    1.19e+00
2006 11 11  1250    54050   46200      0    1.68e+00    0    1.17e+00
2006 11 11  1255    54050   46500      0    1.71e+00    0    1.18e+00
2006 11 11  1300    54050   46800      0    1.72e+00    0    1.19e+00
2006 11 11  1305    54050   47100      0    1.67e+00    0    1.15e+00
2006 11 11  1310    54050   47400      0    1.72e+00    0    1.18e+00
2006 11 11  1315    54050   47700      0    1.74e+00    0    1.20e+00
2006 11 11  1320    54050   48000      0    1.70e+00    0    1.17e+00
2006 11 11  1325    54050   48300      0    1.71e+00    0    1.17e+00
2006 11 11  1330    54050   48600      0    1.73e+00    0    1.17e+00
2006 11 11  1335    54050   48900      0    1.66e+00    0    1.14e+00
2006 11 11  1340    54050   49200      0    1.74e+00    0    1.19e+00
2006 11 11  1345    54050   49500      0    1.66e+00    0    1.14e+00
2006 11 11  1350    54050   49800      0    1.74e+00    0    1.20e+00
2006 11 11  1355    54050   50100      0    1.73e+00    0    1.20e+00
2006 11 11  1400    54050   50400      0    1.69e+00    0    1.17e+00
2006 11 11  1405    54050   50700      0    1.68e+00    0    1.16e+00
2006 11 11  1410    54050   51000      0    1.72e+00    0    1.19e+00
2006 11 11  1415    54050   51300      0    1.73e+00    0    1.18e+00
2006 11 11  1420    54050   51600      0    1.71e+00    0    1.19e+00
2006 11 11  1425    54050   51900      0    1.67e+00    0    1.14e+00
2006 11 11  1430    54050   52200      0    1.68e+00    0    1.16e+00
2006 11 11  1435    54050   52500      0    1.71e+00    0    1.19e+00
2006 11 11  1440    54050   52800      0    1.69e+00    0    1.16e+00
2006 11 11  1445    54050   53100      0    1.67e+00    0    1.16e+00
2006 11 11  1450    54050   53400      0    1.71e+00    0    1.18e+00
2006 11 11  1455    54050   53700      0    1.66e+00    0    1.14e+00
2006 11 11  1500    54050   54000      0    1.66e+00    0    1.16e+00
2006 11 11  1505    54050   54300      0    1.66e+00    0    1.14e+00
2006 11 11  1510    54050   54600      0    1.70e+00    0    1.16e+00
2006 11 11  1515    54050   54900      0    1.68e+00    0    1.16e+00
2006 11 11  1520    54050   55200      0    1.67e+00    0    1.14e+00
2006 11 11  1525    54050   55500      0    1.69e+00    0    1.17e+00
2006 11 11  1530    54050   55800      0    1.68e+00    0    1.17e+00
2006 11 11  1535    54050   56100      0    1.69e+00    0    1.17e+00
2006 11 11  1540    54050   56400      0    1.69e+00    0    1.17e+00
2006 11 11  1545    54050   56700      0    1.65e+00    0    1.14e+00
2006 11 11  1550    54050   57000      0    1.66e+00    0    1.14e+00
2006 11 11  1555    54050   57300      0    1.67e+00    0    1.14e+00
2006 11 11  1600    54050   57600      0    1.63e+00    0    1.12e+00
2006 11 11  1605    54050   57900      0    1.68e+00    0    1.17e+00
2006 11 11  1610    54050   58200      0    1.67e+00    0    1.16e+00
2006 11 11  1615    54050   58500      0    1.67e+00    0    1.17e+00
2006 11 11  1620    54050   58800      0    1.64e+00    0    1.12e+00
2006 11 11  1625    54050   59100      0    1.69e+00    0    1.16e+00
2006 11 11  1630    54050   59400      0    1.67e+00    0    1.14e+00
2006 11 11  1635    54050   59700      0    1.64e+00    0    1.13e+00
2006 11 11  1640    54050   60000      0    1.63e+00    0    1.12e+00
2006 11 11  1645    54050   60300      0    1.67e+00    0    1.15e+00
2006 11 11  1650    54050   60600      0    1.65e+00    0    1.14e+00
2006 11 11  1655    54050   60900      0    1.64e+00    0    1.14e+00
2006 11 11  1700    54050   61200      0    1.58e+00    0    1.10e+00
2006 11 11  1705    54050   61500      0    1.69e+00    0    1.17e+00
2006 11 11  1710    54050   61800      0    1.64e+00    0    1.13e+00
2006 11 11  1715    54050   62100      0    1.67e+00    0    1.14e+00
2006 11 11  1720    54050   62400      0    1.69e+00    0    1.17e+00
2006 11 11  1725    54050   62700      0    1.69e+00    0    1.16e+00
2006 11 11  1730    54050   63000      0    1.69e+00    0    1.16e+00
2006 11 11  1735    54050   63300      0    1.71e+00    0    1.17e+00
2006 11 11  1740    54050   63600      0    1.63e+00    0    1.12e+00
2006 11 11  1745    54050   63900      0    1.67e+00    0    1.15e+00
2006 11 11  1750    54050   64200      0    1.68e+00    0    1.17e+00
2006 11 11  1755    54050   64500      0    1.65e+00    0    1.14e+00
2006 11 11  1800    54050   64800      0    1.68e+00    0    1.17e+00
2006 11 11  1805    54050   65100      0    1.66e+00    0    1.13e+00
2006 11 11  1810    54050   65400      0    1.69e+00    0    1.17e+00
2006 11 11  1815    54050   65700      0    1.67e+00    0    1.15e+00
2006 11 11  1820    54050   66000      0    1.71e+00    0    1.18e+00
2006 11 11  1825    54050   66300      0    1.66e+00    0    1.15e+00
2006 11 11  1830    54050   66600      0    1.67e+00    0    1.15e+00
2006 11 11  1835    54050   66900      0    1.63e+00    0    1.13e+00
2006 11 11  1840    54050   67200      0    1.68e+00    0    1.17e+00
2006 11 11  1845    54050   67500      0    1.67e+00    0    1.16e+00
2006 11 11  1850    54050   67800      0    1.65e+00    0    1.14e+00
2006 11 11  1855    54050   68100      0    1.66e+00    0    1.15e+00
2006 11 11  1900    54050   68400      0    1.66e+00    0    1.14e+00
2006 11 11  1905    54050   68700      0    1.69e+00    0    1.17e+00
2006 11 11  1910    54050   69000      0    1.66e+00    0    1.15e+00
2006 11 11  1915    54050   69300      0    1.66e+00    0    1.14e+00
2006 11 11  1920    54050   69600      0    1.67e+00    0    1.16e+00
2006 11 11  1925    54050   69900      0    1.64e+00    0    1.14e+00
2006 11 11  1930    54050   70200      0    1.66e+00    0    1.16e+00
2006 11 11  1935    54050   70500      0    1.67e+00    0    1.16e+00
2006 11 11  1940    54050   70800      0    1.66e+00    0    1.14e+00
2006 11 11  1945    54050   71100      0    1.64e+00    0    1.12e+00
2006 11 11  1950    54050   71400      0    1.64e+00    0    1.13e+00
2006 11 11  1955    54050   71700      0    1.68e+00    0    1.16e+00
2006 11 11  2000    54050   72000      0    1.66e+00    0    1.14e+00
2006 11 11  2005    54050   72300      0    1.68e+00    0    1.17e+00
2006 11 11  2010    54050   72600      0    1.61e+00    0    1.11e+00
2006 11 11  2015    54050   72900      0    1.65e+00    0    1.14e+00
2006 11 11  2020    54050   73200      0    1.66e+00    0    1.15e+00
2006 11 11  2025    54050   73500      0    1.66e+00    0    1.14e+00
2006 11 11  2030    54050   73800      0    1.64e+00    0    1.15e+00
2006 11 11  2035    54050   74100      0    1.62e+00    0    1.11e+00
2006 11 11  2040    54050   74400      0    1.67e+00    0    1.16e+00
2006 11 11  2045    54050   74700      0    1.62e+00    0    1.12e+00
2006 11 11  2050    54050   75000      0    1.66e+00    0    1.16e+00
2006 11 11  2055    54050   75300      0    1.67e+00    0    1.15e+00
2006 11 11  2100    54050   75600      0    1.69e+00    0    1.17e+00
2006 11 11  2105    54050   75900      0    1.69e+00    0    1.18e+00
2006 11 11  2110    54050   76200      0    1.69e+00    0    1.17e+00
2006 11 11  2115    54050   76500      0    1.66e+00    0    1.15e+00
2006 11 11  2120    54050   76800      0    1.65e+00    0    1.13e+00
2006 11 11  2125    54050   77100      0    1.64e+00    0    1.13e+00
2006 11 11  2130    54050   77400      0    1.63e+00    0    1.13e+00
2006 11 11  2135    54050   77700      0    1.62e+00    0    1.12e+00
2006 11 11  2140    54050   78000      0    1.64e+00    0    1.13e+00
2006 11 11  2145    54050   78300      0    1.66e+00    0    1.16e+00
2006 11 11  2150    54050   78600      0    1.66e+00    0    1.15e+00
2006 11 11  2155    54050   78900      0    1.66e+00    0    1.14e+00
2006 11 11  2200    54050   79200      0    1.64e+00    0    1.12e+00
2006 11 11  2205    54050   79500      0    1.66e+00    0    1.14e+00
2006 11 11  2210    54050   79800      0    1.63e+00    0    1.12e+00
2006 11 11  2215    54050   80100      0    1.63e+00    0    1.11e+00
2006 11 11  2220    54050   80400      0    1.65e+00    0    1.14e+00
2006 11 11  2225    54050   80700      0    1.64e+00    0    1.14e+00
2006 11 11  2230    54050   81000      0    1.67e+00    0    1.16e+00
2006 11 11  2235    54050   81300      0    1.67e+00    0    1.15e+00
2006 11 11  2240    54050   81600      0    1.70e+00    0    1.19e+00
2006 11 11  2245    54050   81900      0    1.65e+00    0    1.15e+00
2006 11 11  2250    54050   82200      0    1.67e+00    0    1.16e+00
2006 11 11  2255    54050   82500      0    1.62e+00    0    1.13e+00
2006 11 11  2300    54050   82800      0    1.63e+00    0    1.14e+00
2006 11 11  2305    54050   83100      0    1.69e+00    0    1.17e+00
2006 11 11  2310    54050   83400      0    1.67e+00    0    1.15e+00
2006 11 11  2315    54050   83700      0    1.68e+00    0    1.15e+00
2006 11 11  2320    54050   84000      0    1.68e+00    0    1.17e+00
2006 11 11  2325    54050   84300      0    1.67e+00    0    1.14e+00
2006 11 11  2330    54050   84600      0    1.67e+00    0    1.17e+00
2006 11 11  2335    54050   84900      0    1.69e+00    0    1.16e+00
2006 11 11  2340    54050   85200      0    1.64e+00    0    1.11e+00
2006 11 11  2345    54050   85500      0    1.66e+00    0    1.17e+00
2006 11 11  2350    54050   85800      0    1.62e+00    0    1.12e+00
2006 11 11  2355    54050   86100      0    1.62e+00    0    1.12e+00
