:Data_list: 20060217_ace_sis_5m.txt
:Created: 2006 Feb 18 0011 UT
# Prepared by the U.S. Dept. of Commerce, NOAA, Space Environment Center.
# Please send comments and suggestions to SEC.Webmaster@noaa.gov 
# 
# Units: proton flux p/cs2-sec-ster
# Status(S): 0 = nominal data, 1 to 8 = bad data record, 9 = no data
# Missing data values: -1.00e+05
# Source: ACE Satellite - Solar Isotope Spectrometer
#
# 5-minute averaged Real-time Integral Flux of High-energy Solar Protons
# 
#                 Modified Seconds
# UT Date   Time   Julian  of the      ---- Integral Proton Flux ----
# YR MO DA  HHMM     Day     Day       S    > 10 MeV    S    > 30 MeV
#--------------------------------------------------------------------
2006 02 17  0000    53783       0      9   -1.00e+05    9   -1.00e+05
2006 02 17  0005    53783     300      9   -1.00e+05    9   -1.00e+05
2006 02 17  0010    53783     600      9   -1.00e+05    9   -1.00e+05
2006 02 17  0015    53783     900      9   -1.00e+05    9   -1.00e+05
2006 02 17  0020    53783    1200      9   -1.00e+05    9   -1.00e+05
2006 02 17  0025    53783    1500      9   -1.00e+05    9   -1.00e+05
2006 02 17  0030    53783    1800      9   -1.00e+05    9   -1.00e+05
2006 02 17  0035    53783    2100      9   -1.00e+05    9   -1.00e+05
2006 02 17  0040    53783    2400      9   -1.00e+05    9   -1.00e+05
2006 02 17  0045    53783    2700      9   -1.00e+05    9   -1.00e+05
2006 02 17  0050    53783    3000      9   -1.00e+05    9   -1.00e+05
2006 02 17  0055    53783    3300      9   -1.00e+05    9   -1.00e+05
2006 02 17  0100    53783    3600      9   -1.00e+05    9   -1.00e+05
2006 02 17  0105    53783    3900      9   -1.00e+05    9   -1.00e+05
2006 02 17  0110    53783    4200      9   -1.00e+05    9   -1.00e+05
2006 02 17  0115    53783    4500      9   -1.00e+05    9   -1.00e+05
2006 02 17  0120    53783    4800      9   -1.00e+05    9   -1.00e+05
2006 02 17  0125    53783    5100      0    1.48e+00    0    1.04e+00
2006 02 17  0130    53783    5400      0    1.48e+00    0    1.04e+00
2006 02 17  0135    53783    5700      0    1.50e+00    0    1.06e+00
2006 02 17  0140    53783    6000      0    1.49e+00    0    1.04e+00
2006 02 17  0145    53783    6300      0    1.48e+00    0    1.04e+00
2006 02 17  0150    53783    6600      0    1.45e+00    0    1.02e+00
2006 02 17  0155    53783    6900      0    1.49e+00    0    1.04e+00
2006 02 17  0200    53783    7200      0    1.50e+00    0    1.06e+00
2006 02 17  0205    53783    7500      0    1.49e+00    0    1.05e+00
2006 02 17  0210    53783    7800      0    1.48e+00    0    1.03e+00
2006 02 17  0215    53783    8100      0    1.49e+00    0    1.05e+00
2006 02 17  0220    53783    8400      0    1.48e+00    0    1.05e+00
2006 02 17  0225    53783    8700      0    1.48e+00    0    1.05e+00
2006 02 17  0230    53783    9000      0    1.50e+00    0    1.05e+00
2006 02 17  0235    53783    9300      0    1.50e+00    0    1.06e+00
2006 02 17  0240    53783    9600      0    1.46e+00    0    1.01e+00
2006 02 17  0245    53783    9900      0    1.45e+00    0    1.00e+00
2006 02 17  0250    53783   10200      9   -1.00e+05    9   -1.00e+05
2006 02 17  0255    53783   10500      9   -1.00e+05    9   -1.00e+05
2006 02 17  0300    53783   10800      9   -1.00e+05    9   -1.00e+05
2006 02 17  0305    53783   11100      9   -1.00e+05    9   -1.00e+05
2006 02 17  0310    53783   11400      9   -1.00e+05    9   -1.00e+05
2006 02 17  0315    53783   11700      9   -1.00e+05    9   -1.00e+05
2006 02 17  0320    53783   12000      9   -1.00e+05    9   -1.00e+05
2006 02 17  0325    53783   12300      9   -1.00e+05    9   -1.00e+05
2006 02 17  0330    53783   12600      0    1.50e+00    0    1.05e+00
2006 02 17  0335    53783   12900      0    1.50e+00    0    1.06e+00
2006 02 17  0340    53783   13200      0    1.48e+00    0    1.04e+00
2006 02 17  0345    53783   13500      0    1.46e+00    0    1.02e+00
2006 02 17  0350    53783   13800      0    1.51e+00    0    1.05e+00
2006 02 17  0355    53783   14100      0    1.51e+00    0    1.07e+00
2006 02 17  0400    53783   14400      0    1.48e+00    0    1.05e+00
2006 02 17  0405    53783   14700      0    1.46e+00    0    1.02e+00
2006 02 17  0410    53783   15000      0    1.49e+00    0    1.05e+00
2006 02 17  0415    53783   15300      0    1.48e+00    0    1.04e+00
2006 02 17  0420    53783   15600      0    1.49e+00    0    1.05e+00
2006 02 17  0425    53783   15900      9   -1.00e+05    9   -1.00e+05
2006 02 17  0430    53783   16200      9   -1.00e+05    9   -1.00e+05
2006 02 17  0435    53783   16500      9   -1.00e+05    9   -1.00e+05
2006 02 17  0440    53783   16800      9   -1.00e+05    9   -1.00e+05
2006 02 17  0445    53783   17100      9   -1.00e+05    9   -1.00e+05
2006 02 17  0450    53783   17400      9   -1.00e+05    9   -1.00e+05
2006 02 17  0455    53783   17700      9   -1.00e+05    9   -1.00e+05
2006 02 17  0500    53783   18000      9   -1.00e+05    9   -1.00e+05
2006 02 17  0505    53783   18300      9   -1.00e+05    9   -1.00e+05
2006 02 17  0510    53783   18600      9   -1.00e+05    9   -1.00e+05
2006 02 17  0515    53783   18900      9   -1.00e+05    9   -1.00e+05
2006 02 17  0520    53783   19200      9   -1.00e+05    9   -1.00e+05
2006 02 17  0525    53783   19500      9   -1.00e+05    9   -1.00e+05
2006 02 17  0530    53783   19800      9   -1.00e+05    9   -1.00e+05
2006 02 17  0535    53783   20100      9   -1.00e+05    9   -1.00e+05
2006 02 17  0540    53783   20400      9   -1.00e+05    9   -1.00e+05
2006 02 17  0545    53783   20700      9   -1.00e+05    9   -1.00e+05
2006 02 17  0550    53783   21000      9   -1.00e+05    9   -1.00e+05
2006 02 17  0555    53783   21300      9   -1.00e+05    9   -1.00e+05
2006 02 17  0600    53783   21600      9   -1.00e+05    9   -1.00e+05
2006 02 17  0605    53783   21900      9   -1.00e+05    9   -1.00e+05
2006 02 17  0610    53783   22200      9   -1.00e+05    9   -1.00e+05
2006 02 17  0615    53783   22500      9   -1.00e+05    9   -1.00e+05
2006 02 17  0620    53783   22800      9   -1.00e+05    9   -1.00e+05
2006 02 17  0625    53783   23100      9   -1.00e+05    9   -1.00e+05
2006 02 17  0630    53783   23400      9   -1.00e+05    9   -1.00e+05
2006 02 17  0635    53783   23700      9   -1.00e+05    9   -1.00e+05
2006 02 17  0640    53783   24000      9   -1.00e+05    9   -1.00e+05
2006 02 17  0645    53783   24300      9   -1.00e+05    9   -1.00e+05
2006 02 17  0650    53783   24600      0    1.54e+00    0    1.09e+00
2006 02 17  0655    53783   24900      0    1.45e+00    0    1.02e+00
2006 02 17  0700    53783   25200      0    1.50e+00    0    1.05e+00
2006 02 17  0705    53783   25500      0    1.50e+00    0    1.05e+00
2006 02 17  0710    53783   25800      0    1.48e+00    0    1.05e+00
2006 02 17  0715    53783   26100      0    1.47e+00    0    1.03e+00
2006 02 17  0720    53783   26400      0    1.52e+00    0    1.07e+00
2006 02 17  0725    53783   26700      0    1.49e+00    0    1.06e+00
2006 02 17  0730    53783   27000      0    1.49e+00    0    1.04e+00
2006 02 17  0735    53783   27300      0    1.50e+00    0    1.05e+00
2006 02 17  0740    53783   27600      0    1.52e+00    0    1.06e+00
2006 02 17  0745    53783   27900      0    1.50e+00    0    1.05e+00
2006 02 17  0750    53783   28200      0    1.50e+00    0    1.05e+00
2006 02 17  0755    53783   28500      0    1.51e+00    0    1.06e+00
2006 02 17  0800    53783   28800      0    1.50e+00    0    1.06e+00
2006 02 17  0805    53783   29100      0    1.49e+00    0    1.04e+00
2006 02 17  0810    53783   29400      0    1.49e+00    0    1.04e+00
2006 02 17  0815    53783   29700      0    1.45e+00    0    1.02e+00
2006 02 17  0820    53783   30000      0    1.47e+00    0    1.03e+00
2006 02 17  0825    53783   30300      0    1.43e+00    0    1.00e+00
2006 02 17  0830    53783   30600      0    1.47e+00    0    1.04e+00
2006 02 17  0835    53783   30900      0    1.45e+00    0    1.02e+00
2006 02 17  0840    53783   31200      0    1.48e+00    0    1.04e+00
2006 02 17  0845    53783   31500      0    1.50e+00    0    1.05e+00
2006 02 17  0850    53783   31800      0    1.45e+00    0    1.02e+00
2006 02 17  0855    53783   32100      0    1.48e+00    0    1.05e+00
2006 02 17  0900    53783   32400      0    1.47e+00    0    1.02e+00
2006 02 17  0905    53783   32700      0    1.46e+00    0    1.03e+00
2006 02 17  0910    53783   33000      0    1.45e+00    0    1.03e+00
2006 02 17  0915    53783   33300      0    1.46e+00    0    1.03e+00
2006 02 17  0920    53783   33600      0    1.45e+00    0    1.02e+00
2006 02 17  0925    53783   33900      0    1.46e+00    0    1.02e+00
2006 02 17  0930    53783   34200      0    1.49e+00    0    1.04e+00
2006 02 17  0935    53783   34500      0    1.50e+00    0    1.06e+00
2006 02 17  0940    53783   34800      0    1.49e+00    0    1.05e+00
2006 02 17  0945    53783   35100      0    1.47e+00    0    1.03e+00
2006 02 17  0950    53783   35400      0    1.52e+00    0    1.07e+00
2006 02 17  0955    53783   35700      0    1.52e+00    0    1.07e+00
2006 02 17  1000    53783   36000      0    1.48e+00    0    1.05e+00
2006 02 17  1005    53783   36300      0    1.47e+00    0    1.03e+00
2006 02 17  1010    53783   36600      0    1.51e+00    0    1.05e+00
2006 02 17  1015    53783   36900      0    1.46e+00    0    1.03e+00
2006 02 17  1020    53783   37200      0    1.48e+00    0    1.04e+00
2006 02 17  1025    53783   37500      0    1.47e+00    0    1.03e+00
2006 02 17  1030    53783   37800      0    1.46e+00    0    1.02e+00
2006 02 17  1035    53783   38100      0    1.48e+00    0    1.04e+00
2006 02 17  1040    53783   38400      0    1.47e+00    0    1.03e+00
2006 02 17  1045    53783   38700      0    1.44e+00    0    1.02e+00
2006 02 17  1050    53783   39000      0    1.48e+00    0    1.05e+00
2006 02 17  1055    53783   39300      0    1.47e+00    0    1.04e+00
2006 02 17  1100    53783   39600      0    1.48e+00    0    1.05e+00
2006 02 17  1105    53783   39900      0    1.49e+00    0    1.04e+00
2006 02 17  1110    53783   40200      0    1.54e+00    0    1.08e+00
2006 02 17  1115    53783   40500      0    1.50e+00    0    1.05e+00
2006 02 17  1120    53783   40800      0    1.50e+00    0    1.05e+00
2006 02 17  1125    53783   41100      0    1.49e+00    0    1.04e+00
2006 02 17  1130    53783   41400      0    1.48e+00    0    1.05e+00
2006 02 17  1135    53783   41700      0    1.49e+00    0    1.05e+00
2006 02 17  1140    53783   42000      0    1.51e+00    0    1.06e+00
2006 02 17  1145    53783   42300      0    1.49e+00    0    1.06e+00
2006 02 17  1150    53783   42600      0    1.47e+00    0    1.03e+00
2006 02 17  1155    53783   42900      0    1.51e+00    0    1.06e+00
2006 02 17  1200    53783   43200      0    1.53e+00    0    1.08e+00
2006 02 17  1205    53783   43500      0    1.51e+00    0    1.06e+00
2006 02 17  1210    53783   43800      0    1.49e+00    0    1.04e+00
2006 02 17  1215    53783   44100      0    1.48e+00    0    1.04e+00
2006 02 17  1220    53783   44400      0    1.52e+00    0    1.07e+00
2006 02 17  1225    53783   44700      0    1.53e+00    0    1.07e+00
2006 02 17  1230    53783   45000      0    1.48e+00    0    1.03e+00
2006 02 17  1235    53783   45300      0    1.49e+00    0    1.04e+00
2006 02 17  1240    53783   45600      0    1.48e+00    0    1.04e+00
2006 02 17  1245    53783   45900      0    1.50e+00    0    1.04e+00
2006 02 17  1250    53783   46200      0    1.48e+00    0    1.05e+00
2006 02 17  1255    53783   46500      0    1.46e+00    0    1.03e+00
2006 02 17  1300    53783   46800      0    1.49e+00    0    1.05e+00
2006 02 17  1305    53783   47100      0    1.48e+00    0    1.04e+00
2006 02 17  1310    53783   47400      0    1.44e+00    0    1.02e+00
2006 02 17  1315    53783   47700      0    1.49e+00    0    1.05e+00
2006 02 17  1320    53783   48000      0    1.46e+00    0    1.02e+00
2006 02 17  1325    53783   48300      0    1.48e+00    0    1.04e+00
2006 02 17  1330    53783   48600      0    1.51e+00    0    1.06e+00
2006 02 17  1335    53783   48900      0    1.48e+00    0    1.05e+00
2006 02 17  1340    53783   49200      0    1.51e+00    0    1.06e+00
2006 02 17  1345    53783   49500      0    1.48e+00    0    1.05e+00
2006 02 17  1350    53783   49800      0    1.47e+00    0    1.03e+00
2006 02 17  1355    53783   50100      0    1.52e+00    0    1.07e+00
2006 02 17  1400    53783   50400      0    1.42e+00    0    9.97e-01
2006 02 17  1405    53783   50700      0    1.50e+00    0    1.05e+00
2006 02 17  1410    53783   51000      0    1.47e+00    0    1.03e+00
2006 02 17  1415    53783   51300      0    1.48e+00    0    1.04e+00
2006 02 17  1420    53783   51600      0    1.48e+00    0    1.05e+00
2006 02 17  1425    53783   51900      0    1.48e+00    0    1.04e+00
2006 02 17  1430    53783   52200      0    1.50e+00    0    1.05e+00
2006 02 17  1435    53783   52500      0    1.53e+00    0    1.07e+00
2006 02 17  1440    53783   52800      0    1.50e+00    0    1.06e+00
2006 02 17  1445    53783   53100      0    1.49e+00    0    1.05e+00
2006 02 17  1450    53783   53400      0    1.49e+00    0    1.05e+00
2006 02 17  1455    53783   53700      0    1.50e+00    0    1.05e+00
2006 02 17  1500    53783   54000      0    1.48e+00    0    1.04e+00
2006 02 17  1505    53783   54300      0    1.48e+00    0    1.03e+00
2006 02 17  1510    53783   54600      0    1.49e+00    0    1.05e+00
2006 02 17  1515    53783   54900      0    1.49e+00    0    1.05e+00
2006 02 17  1520    53783   55200      0    1.49e+00    0    1.03e+00
2006 02 17  1525    53783   55500      0    1.52e+00    0    1.07e+00
2006 02 17  1530    53783   55800      0    1.48e+00    0    1.04e+00
2006 02 17  1535    53783   56100      0    1.50e+00    0    1.06e+00
2006 02 17  1540    53783   56400      0    1.53e+00    0    1.07e+00
2006 02 17  1545    53783   56700      0    1.52e+00    0    1.07e+00
2006 02 17  1550    53783   57000      0    1.48e+00    0    1.04e+00
2006 02 17  1555    53783   57300      0    1.49e+00    0    1.04e+00
2006 02 17  1600    53783   57600      0    1.53e+00    0    1.07e+00
2006 02 17  1605    53783   57900      0    1.49e+00    0    1.04e+00
2006 02 17  1610    53783   58200      0    1.51e+00    0    1.04e+00
2006 02 17  1615    53783   58500      0    1.44e+00    0    1.02e+00
2006 02 17  1620    53783   58800      0    1.50e+00    0    1.05e+00
2006 02 17  1625    53783   59100      0    1.50e+00    0    1.06e+00
2006 02 17  1630    53783   59400      0    1.50e+00    0    1.06e+00
2006 02 17  1635    53783   59700      0    1.51e+00    0    1.07e+00
2006 02 17  1640    53783   60000      0    1.51e+00    0    1.06e+00
2006 02 17  1645    53783   60300      0    1.48e+00    0    1.05e+00
2006 02 17  1650    53783   60600      0    1.50e+00    0    1.06e+00
2006 02 17  1655    53783   60900      0    1.50e+00    0    1.04e+00
2006 02 17  1700    53783   61200      0    1.49e+00    0    1.04e+00
2006 02 17  1705    53783   61500      0    1.51e+00    0    1.07e+00
2006 02 17  1710    53783   61800      0    1.56e+00    0    1.10e+00
2006 02 17  1715    53783   62100      0    1.49e+00    0    1.06e+00
2006 02 17  1720    53783   62400      0    1.53e+00    0    1.07e+00
2006 02 17  1725    53783   62700      0    1.49e+00    0    1.05e+00
2006 02 17  1730    53783   63000      0    1.50e+00    0    1.05e+00
2006 02 17  1735    53783   63300      0    1.49e+00    0    1.04e+00
2006 02 17  1740    53783   63600      0    1.49e+00    0    1.05e+00
2006 02 17  1745    53783   63900      0    1.52e+00    0    1.06e+00
2006 02 17  1750    53783   64200      0    1.53e+00    0    1.08e+00
2006 02 17  1755    53783   64500      0    1.50e+00    0    1.04e+00
2006 02 17  1800    53783   64800      0    1.51e+00    0    1.07e+00
2006 02 17  1805    53783   65100      0    1.48e+00    0    1.05e+00
2006 02 17  1810    53783   65400      0    1.47e+00    0    1.03e+00
2006 02 17  1815    53783   65700      0    1.47e+00    0    1.04e+00
2006 02 17  1820    53783   66000      0    1.47e+00    0    1.03e+00
2006 02 17  1825    53783   66300      0    1.47e+00    0    1.02e+00
2006 02 17  1830    53783   66600      0    1.48e+00    0    1.02e+00
2006 02 17  1835    53783   66900      0    1.47e+00    0    1.04e+00
2006 02 17  1840    53783   67200      0    1.46e+00    0    1.02e+00
2006 02 17  1845    53783   67500      0    1.51e+00    0    1.06e+00
2006 02 17  1850    53783   67800      0    1.52e+00    0    1.06e+00
2006 02 17  1855    53783   68100      0    1.50e+00    0    1.06e+00
2006 02 17  1900    53783   68400      0    1.49e+00    0    1.05e+00
2006 02 17  1905    53783   68700      0    1.51e+00    0    1.07e+00
2006 02 17  1910    53783   69000      0    1.46e+00    0    1.04e+00
2006 02 17  1915    53783   69300      0    1.48e+00    0    1.04e+00
2006 02 17  1920    53783   69600      0    1.49e+00    0    1.04e+00
2006 02 17  1925    53783   69900      0    1.52e+00    0    1.06e+00
2006 02 17  1930    53783   70200      0    1.50e+00    0    1.05e+00
2006 02 17  1935    53783   70500      0    1.49e+00    0    1.06e+00
2006 02 17  1940    53783   70800      0    1.51e+00    0    1.07e+00
2006 02 17  1945    53783   71100      0    1.51e+00    0    1.06e+00
2006 02 17  1950    53783   71400      0    1.52e+00    0    1.07e+00
2006 02 17  1955    53783   71700      0    1.48e+00    0    1.04e+00
2006 02 17  2000    53783   72000      0    1.49e+00    0    1.05e+00
2006 02 17  2005    53783   72300      0    1.45e+00    0    1.02e+00
2006 02 17  2010    53783   72600      0    1.52e+00    0    1.06e+00
2006 02 17  2015    53783   72900      0    1.49e+00    0    1.06e+00
2006 02 17  2020    53783   73200      0    1.49e+00    0    1.06e+00
2006 02 17  2025    53783   73500      0    1.50e+00    0    1.05e+00
2006 02 17  2030    53783   73800      0    1.47e+00    0    1.04e+00
2006 02 17  2035    53783   74100      0    1.45e+00    0    1.02e+00
2006 02 17  2040    53783   74400      0    1.49e+00    0    1.04e+00
2006 02 17  2045    53783   74700      0    1.48e+00    0    1.04e+00
2006 02 17  2050    53783   75000      0    1.53e+00    0    1.07e+00
2006 02 17  2055    53783   75300      0    1.48e+00    0    1.04e+00
2006 02 17  2100    53783   75600      0    1.48e+00    0    1.04e+00
2006 02 17  2105    53783   75900      0    1.46e+00    0    1.03e+00
2006 02 17  2110    53783   76200      0    1.49e+00    0    1.06e+00
2006 02 17  2115    53783   76500      0    1.53e+00    0    1.08e+00
2006 02 17  2120    53783   76800      0    1.50e+00    0    1.06e+00
2006 02 17  2125    53783   77100      0    1.50e+00    0    1.06e+00
2006 02 17  2130    53783   77400      0    1.48e+00    0    1.04e+00
2006 02 17  2135    53783   77700      0    1.49e+00    0    1.04e+00
2006 02 17  2140    53783   78000      0    1.50e+00    0    1.07e+00
2006 02 17  2145    53783   78300      0    1.50e+00    0    1.06e+00
2006 02 17  2150    53783   78600      0    1.48e+00    0    1.03e+00
2006 02 17  2155    53783   78900      0    1.51e+00    0    1.06e+00
2006 02 17  2200    53783   79200      0    1.52e+00    0    1.09e+00
2006 02 17  2205    53783   79500      0    1.47e+00    0    1.04e+00
2006 02 17  2210    53783   79800      0    1.47e+00    0    1.04e+00
2006 02 17  2215    53783   80100      0    1.48e+00    0    1.03e+00
2006 02 17  2220    53783   80400      0    1.48e+00    0    1.04e+00
2006 02 17  2225    53783   80700      0    1.46e+00    0    1.02e+00
2006 02 17  2230    53783   81000      0    1.50e+00    0    1.04e+00
2006 02 17  2235    53783   81300      0    1.48e+00    0    1.04e+00
2006 02 17  2240    53783   81600      0    1.50e+00    0    1.06e+00
2006 02 17  2245    53783   81900      0    1.49e+00    0    1.04e+00
2006 02 17  2250    53783   82200      0    1.45e+00    0    1.03e+00
2006 02 17  2255    53783   82500      0    1.47e+00    0    1.04e+00
2006 02 17  2300    53783   82800      0    1.50e+00    0    1.05e+00
2006 02 17  2305    53783   83100      0    1.50e+00    0    1.07e+00
2006 02 17  2310    53783   83400      0    1.47e+00    0    1.03e+00
2006 02 17  2315    53783   83700      0    1.45e+00    0    1.02e+00
2006 02 17  2320    53783   84000      0    1.50e+00    0    1.05e+00
2006 02 17  2325    53783   84300      0    1.46e+00    0    1.02e+00
2006 02 17  2330    53783   84600      0    1.48e+00    0    1.04e+00
2006 02 17  2335    53783   84900      0    1.47e+00    0    1.03e+00
2006 02 17  2340    53783   85200      0    1.47e+00    0    1.04e+00
2006 02 17  2345    53783   85500      0    1.50e+00    0    1.05e+00
2006 02 17  2350    53783   85800      0    1.51e+00    0    1.06e+00
2006 02 17  2355    53783   86100      0    1.49e+00    0    1.06e+00
