:Data_list: 20061112_ace_sis_5m.txt
:Created: 2006 Nov 13 0011 UT
# Prepared by the U.S. Dept. of Commerce, NOAA, Space Environment Center.
# Please send comments and suggestions to SEC.Webmaster@noaa.gov 
# 
# Units: proton flux p/cs2-sec-ster
# Status(S): 0 = nominal data, 1 to 8 = bad data record, 9 = no data
# Missing data values: -1.00e+05
# Source: ACE Satellite - Solar Isotope Spectrometer
#
# 5-minute averaged Real-time Integral Flux of High-energy Solar Protons
# 
#                 Modified Seconds
# UT Date   Time   Julian  of the      ---- Integral Proton Flux ----
# YR MO DA  HHMM     Day     Day       S    > 10 MeV    S    > 30 MeV
#--------------------------------------------------------------------
2006 11 12  0000    54051       0      0    1.63e+00    0    1.13e+00
2006 11 12  0005    54051     300      0    1.65e+00    0    1.14e+00
2006 11 12  0010    54051     600      0    1.68e+00    0    1.16e+00
2006 11 12  0015    54051     900      0    1.63e+00    0    1.12e+00
2006 11 12  0020    54051    1200      0    1.67e+00    0    1.17e+00
2006 11 12  0025    54051    1500      0    1.68e+00    0    1.17e+00
2006 11 12  0030    54051    1800      0    1.65e+00    0    1.14e+00
2006 11 12  0035    54051    2100      0    1.64e+00    0    1.14e+00
2006 11 12  0040    54051    2400      0    1.68e+00    0    1.15e+00
2006 11 12  0045    54051    2700      0    1.68e+00    0    1.16e+00
2006 11 12  0050    54051    3000      0    1.66e+00    0    1.15e+00
2006 11 12  0055    54051    3300      0    1.67e+00    0    1.16e+00
2006 11 12  0100    54051    3600      0    1.66e+00    0    1.15e+00
2006 11 12  0105    54051    3900      0    1.68e+00    0    1.16e+00
2006 11 12  0110    54051    4200      0    1.71e+00    0    1.18e+00
2006 11 12  0115    54051    4500      0    1.66e+00    0    1.15e+00
2006 11 12  0120    54051    4800      0    1.69e+00    0    1.18e+00
2006 11 12  0125    54051    5100      0    1.71e+00    0    1.18e+00
2006 11 12  0130    54051    5400      0    1.66e+00    0    1.15e+00
2006 11 12  0135    54051    5700      0    1.66e+00    0    1.15e+00
2006 11 12  0140    54051    6000      0    1.66e+00    0    1.15e+00
2006 11 12  0145    54051    6300      0    1.61e+00    0    1.12e+00
2006 11 12  0150    54051    6600      0    1.64e+00    0    1.13e+00
2006 11 12  0155    54051    6900      0    1.68e+00    0    1.18e+00
2006 11 12  0200    54051    7200      0    1.70e+00    0    1.17e+00
2006 11 12  0205    54051    7500      0    1.67e+00    0    1.15e+00
2006 11 12  0210    54051    7800      0    1.67e+00    0    1.16e+00
2006 11 12  0215    54051    8100      0    1.64e+00    0    1.15e+00
2006 11 12  0220    54051    8400      0    1.66e+00    0    1.16e+00
2006 11 12  0225    54051    8700      0    1.63e+00    0    1.14e+00
2006 11 12  0230    54051    9000      0    1.67e+00    0    1.16e+00
2006 11 12  0235    54051    9300      0    1.69e+00    0    1.17e+00
2006 11 12  0240    54051    9600      0    1.71e+00    0    1.18e+00
2006 11 12  0245    54051    9900      0    1.62e+00    0    1.12e+00
2006 11 12  0250    54051   10200      0    1.66e+00    0    1.15e+00
2006 11 12  0255    54051   10500      0    1.66e+00    0    1.15e+00
2006 11 12  0300    54051   10800      0    1.69e+00    0    1.17e+00
2006 11 12  0305    54051   11100      0    1.69e+00    0    1.19e+00
2006 11 12  0310    54051   11400      0    1.64e+00    0    1.13e+00
2006 11 12  0315    54051   11700      0    1.69e+00    0    1.17e+00
2006 11 12  0320    54051   12000      0    1.71e+00    0    1.18e+00
2006 11 12  0325    54051   12300      0    1.67e+00    0    1.16e+00
2006 11 12  0330    54051   12600      0    1.61e+00    0    1.11e+00
2006 11 12  0335    54051   12900      0    1.67e+00    0    1.17e+00
2006 11 12  0340    54051   13200      0    1.69e+00    0    1.18e+00
2006 11 12  0345    54051   13500      0    1.67e+00    0    1.16e+00
2006 11 12  0350    54051   13800      0    1.69e+00    0    1.17e+00
2006 11 12  0355    54051   14100      0    1.65e+00    0    1.15e+00
2006 11 12  0400    54051   14400      0    1.67e+00    0    1.17e+00
2006 11 12  0405    54051   14700      0    1.64e+00    0    1.14e+00
2006 11 12  0410    54051   15000      0    1.66e+00    0    1.15e+00
2006 11 12  0415    54051   15300      0    1.69e+00    0    1.17e+00
2006 11 12  0420    54051   15600      0    1.69e+00    0    1.18e+00
2006 11 12  0425    54051   15900      0    1.65e+00    0    1.16e+00
2006 11 12  0430    54051   16200      0    1.67e+00    0    1.16e+00
2006 11 12  0435    54051   16500      0    1.69e+00    0    1.16e+00
2006 11 12  0440    54051   16800      0    1.65e+00    0    1.14e+00
2006 11 12  0445    54051   17100      0    1.67e+00    0    1.16e+00
2006 11 12  0450    54051   17400      0    1.66e+00    0    1.15e+00
2006 11 12  0455    54051   17700      0    1.69e+00    0    1.17e+00
2006 11 12  0500    54051   18000      0    1.68e+00    0    1.16e+00
2006 11 12  0505    54051   18300      0    1.66e+00    0    1.15e+00
2006 11 12  0510    54051   18600      0    1.65e+00    0    1.15e+00
2006 11 12  0515    54051   18900      0    1.66e+00    0    1.15e+00
2006 11 12  0520    54051   19200      0    1.65e+00    0    1.14e+00
2006 11 12  0525    54051   19500      0    1.66e+00    0    1.15e+00
2006 11 12  0530    54051   19800      0    1.70e+00    0    1.18e+00
2006 11 12  0535    54051   20100      0    1.65e+00    0    1.15e+00
2006 11 12  0540    54051   20400      0    1.63e+00    0    1.13e+00
2006 11 12  0545    54051   20700      0    1.72e+00    0    1.20e+00
2006 11 12  0550    54051   21000      0    1.69e+00    0    1.17e+00
2006 11 12  0555    54051   21300      0    1.68e+00    0    1.16e+00
2006 11 12  0600    54051   21600      0    1.65e+00    0    1.15e+00
2006 11 12  0605    54051   21900      0    1.66e+00    0    1.15e+00
2006 11 12  0610    54051   22200      0    1.69e+00    0    1.16e+00
2006 11 12  0615    54051   22500      0    1.65e+00    0    1.14e+00
2006 11 12  0620    54051   22800      0    1.64e+00    0    1.14e+00
2006 11 12  0625    54051   23100      0    1.65e+00    0    1.16e+00
2006 11 12  0630    54051   23400      0    1.66e+00    0    1.16e+00
2006 11 12  0635    54051   23700      0    1.66e+00    0    1.15e+00
2006 11 12  0640    54051   24000      0    1.67e+00    0    1.16e+00
2006 11 12  0645    54051   24300      0    1.64e+00    0    1.14e+00
2006 11 12  0650    54051   24600      0    1.65e+00    0    1.14e+00
2006 11 12  0655    54051   24900      0    1.73e+00    0    1.21e+00
2006 11 12  0700    54051   25200      0    1.67e+00    0    1.16e+00
2006 11 12  0705    54051   25500      0    1.67e+00    0    1.16e+00
2006 11 12  0710    54051   25800      0    1.68e+00    0    1.17e+00
2006 11 12  0715    54051   26100      0    1.63e+00    0    1.12e+00
2006 11 12  0720    54051   26400      0    1.70e+00    0    1.19e+00
2006 11 12  0725    54051   26700      0    1.69e+00    0    1.17e+00
2006 11 12  0730    54051   27000      0    1.69e+00    0    1.18e+00
2006 11 12  0735    54051   27300      0    1.67e+00    0    1.16e+00
2006 11 12  0740    54051   27600      0    1.66e+00    0    1.15e+00
2006 11 12  0745    54051   27900      0    1.66e+00    0    1.14e+00
2006 11 12  0750    54051   28200      0    1.68e+00    0    1.15e+00
2006 11 12  0755    54051   28500      0    1.67e+00    0    1.15e+00
2006 11 12  0800    54051   28800      0    1.69e+00    0    1.17e+00
2006 11 12  0805    54051   29100      0    1.69e+00    0    1.18e+00
2006 11 12  0810    54051   29400      0    1.69e+00    0    1.18e+00
2006 11 12  0815    54051   29700      0    1.65e+00    0    1.15e+00
2006 11 12  0820    54051   30000      0    1.67e+00    0    1.15e+00
2006 11 12  0825    54051   30300      0    1.68e+00    0    1.17e+00
2006 11 12  0830    54051   30600      0    1.64e+00    0    1.14e+00
2006 11 12  0835    54051   30900      0    1.66e+00    0    1.15e+00
2006 11 12  0840    54051   31200      0    1.66e+00    0    1.15e+00
2006 11 12  0845    54051   31500      0    1.66e+00    0    1.15e+00
2006 11 12  0850    54051   31800      0    1.67e+00    0    1.16e+00
2006 11 12  0855    54051   32100      0    1.67e+00    0    1.17e+00
2006 11 12  0900    54051   32400      0    1.65e+00    0    1.14e+00
2006 11 12  0905    54051   32700      0    1.66e+00    0    1.16e+00
2006 11 12  0910    54051   33000      0    1.69e+00    0    1.18e+00
2006 11 12  0915    54051   33300      0    1.65e+00    0    1.15e+00
2006 11 12  0920    54051   33600      0    1.69e+00    0    1.18e+00
2006 11 12  0925    54051   33900      0    1.65e+00    0    1.13e+00
2006 11 12  0930    54051   34200      0    1.65e+00    0    1.15e+00
2006 11 12  0935    54051   34500      0    1.67e+00    0    1.15e+00
2006 11 12  0940    54051   34800      0    1.65e+00    0    1.14e+00
2006 11 12  0945    54051   35100      0    1.69e+00    0    1.18e+00
2006 11 12  0950    54051   35400      0    1.68e+00    0    1.17e+00
2006 11 12  0955    54051   35700      0    1.68e+00    0    1.16e+00
2006 11 12  1000    54051   36000      0    1.68e+00    0    1.18e+00
2006 11 12  1005    54051   36300      0    1.67e+00    0    1.16e+00
2006 11 12  1010    54051   36600      0    1.68e+00    0    1.17e+00
2006 11 12  1015    54051   36900      0    1.67e+00    0    1.15e+00
2006 11 12  1020    54051   37200      0    1.72e+00    0    1.19e+00
2006 11 12  1025    54051   37500      0    1.68e+00    0    1.17e+00
2006 11 12  1030    54051   37800      0    1.69e+00    0    1.16e+00
2006 11 12  1035    54051   38100      0    1.72e+00    0    1.20e+00
2006 11 12  1040    54051   38400      0    1.61e+00    0    1.13e+00
2006 11 12  1045    54051   38700      0    1.66e+00    0    1.16e+00
2006 11 12  1050    54051   39000      0    1.71e+00    0    1.19e+00
2006 11 12  1055    54051   39300      0    1.70e+00    0    1.18e+00
2006 11 12  1100    54051   39600      0    1.69e+00    0    1.18e+00
2006 11 12  1105    54051   39900      0    1.68e+00    0    1.17e+00
2006 11 12  1110    54051   40200      0    1.64e+00    0    1.14e+00
2006 11 12  1115    54051   40500      0    1.71e+00    0    1.18e+00
2006 11 12  1120    54051   40800      0    1.64e+00    0    1.14e+00
2006 11 12  1125    54051   41100      0    1.66e+00    0    1.15e+00
2006 11 12  1130    54051   41400      0    1.64e+00    0    1.12e+00
2006 11 12  1135    54051   41700      0    1.67e+00    0    1.17e+00
2006 11 12  1140    54051   42000      0    1.66e+00    0    1.15e+00
2006 11 12  1145    54051   42300      0    1.68e+00    0    1.16e+00
2006 11 12  1150    54051   42600      0    1.63e+00    0    1.13e+00
2006 11 12  1155    54051   42900      0    1.62e+00    0    1.13e+00
2006 11 12  1200    54051   43200      0    1.65e+00    0    1.14e+00
2006 11 12  1205    54051   43500      0    1.67e+00    0    1.15e+00
2006 11 12  1210    54051   43800      0    1.63e+00    0    1.13e+00
2006 11 12  1215    54051   44100      0    1.65e+00    0    1.15e+00
2006 11 12  1220    54051   44400      0    1.68e+00    0    1.17e+00
2006 11 12  1225    54051   44700      0    1.69e+00    0    1.16e+00
2006 11 12  1230    54051   45000      0    1.69e+00    0    1.17e+00
2006 11 12  1235    54051   45300      0    1.67e+00    0    1.15e+00
2006 11 12  1240    54051   45600      0    1.69e+00    0    1.18e+00
2006 11 12  1245    54051   45900      0    1.67e+00    0    1.15e+00
2006 11 12  1250    54051   46200      0    1.64e+00    0    1.13e+00
2006 11 12  1255    54051   46500      0    1.66e+00    0    1.15e+00
2006 11 12  1300    54051   46800      0    1.70e+00    0    1.17e+00
2006 11 12  1305    54051   47100      0    1.68e+00    0    1.17e+00
2006 11 12  1310    54051   47400      0    1.66e+00    0    1.16e+00
2006 11 12  1315    54051   47700      0    1.65e+00    0    1.13e+00
2006 11 12  1320    54051   48000      0    1.66e+00    0    1.16e+00
2006 11 12  1325    54051   48300      0    1.67e+00    0    1.16e+00
2006 11 12  1330    54051   48600      0    1.70e+00    0    1.18e+00
2006 11 12  1335    54051   48900      0    1.71e+00    0    1.19e+00
2006 11 12  1340    54051   49200      0    1.63e+00    0    1.14e+00
2006 11 12  1345    54051   49500      0    1.65e+00    0    1.14e+00
2006 11 12  1350    54051   49800      0    1.67e+00    0    1.16e+00
2006 11 12  1355    54051   50100      0    1.67e+00    0    1.16e+00
2006 11 12  1400    54051   50400      0    1.69e+00    0    1.17e+00
2006 11 12  1405    54051   50700      0    1.63e+00    0    1.14e+00
2006 11 12  1410    54051   51000      0    1.65e+00    0    1.16e+00
2006 11 12  1415    54051   51300      0    1.63e+00    0    1.13e+00
2006 11 12  1420    54051   51600      0    1.67e+00    0    1.17e+00
2006 11 12  1425    54051   51900      0    1.67e+00    0    1.17e+00
2006 11 12  1430    54051   52200      0    1.67e+00    0    1.15e+00
2006 11 12  1435    54051   52500      0    1.73e+00    0    1.19e+00
2006 11 12  1440    54051   52800      0    1.67e+00    0    1.16e+00
2006 11 12  1445    54051   53100      0    1.71e+00    0    1.19e+00
2006 11 12  1450    54051   53400      0    1.68e+00    0    1.18e+00
2006 11 12  1455    54051   53700      0    1.65e+00    0    1.15e+00
2006 11 12  1500    54051   54000      0    1.68e+00    0    1.17e+00
2006 11 12  1505    54051   54300      0    1.59e+00    0    1.11e+00
2006 11 12  1510    54051   54600      0    1.66e+00    0    1.16e+00
2006 11 12  1515    54051   54900      0    1.69e+00    0    1.17e+00
2006 11 12  1520    54051   55200      0    1.72e+00    0    1.21e+00
2006 11 12  1525    54051   55500      0    1.67e+00    0    1.17e+00
2006 11 12  1530    54051   55800      0    1.68e+00    0    1.17e+00
2006 11 12  1535    54051   56100      0    1.68e+00    0    1.17e+00
2006 11 12  1540    54051   56400      0    1.65e+00    0    1.15e+00
2006 11 12  1545    54051   56700      0    1.69e+00    0    1.19e+00
2006 11 12  1550    54051   57000      0    1.65e+00    0    1.15e+00
2006 11 12  1555    54051   57300      0    1.65e+00    0    1.14e+00
2006 11 12  1600    54051   57600      0    1.64e+00    0    1.13e+00
2006 11 12  1605    54051   57900      0    1.65e+00    0    1.15e+00
2006 11 12  1610    54051   58200      0    1.68e+00    0    1.15e+00
2006 11 12  1615    54051   58500      0    1.62e+00    0    1.14e+00
2006 11 12  1620    54051   58800      0    1.66e+00    0    1.14e+00
2006 11 12  1625    54051   59100      0    1.67e+00    0    1.17e+00
2006 11 12  1630    54051   59400      0    1.67e+00    0    1.15e+00
2006 11 12  1635    54051   59700      0    1.65e+00    0    1.15e+00
2006 11 12  1640    54051   60000      0    1.65e+00    0    1.14e+00
2006 11 12  1645    54051   60300      0    1.58e+00    0    1.09e+00
2006 11 12  1650    54051   60600      0    1.64e+00    0    1.14e+00
2006 11 12  1655    54051   60900      0    1.64e+00    0    1.15e+00
2006 11 12  1700    54051   61200      0    1.62e+00    0    1.11e+00
2006 11 12  1705    54051   61500      0    1.65e+00    0    1.13e+00
2006 11 12  1710    54051   61800      0    1.64e+00    0    1.15e+00
2006 11 12  1715    54051   62100      0    1.66e+00    0    1.14e+00
2006 11 12  1720    54051   62400      0    1.66e+00    0    1.15e+00
2006 11 12  1725    54051   62700      0    1.63e+00    0    1.13e+00
2006 11 12  1730    54051   63000      0    1.66e+00    0    1.14e+00
2006 11 12  1735    54051   63300      0    1.69e+00    0    1.17e+00
2006 11 12  1740    54051   63600      0    1.65e+00    0    1.15e+00
2006 11 12  1745    54051   63900      0    1.65e+00    0    1.15e+00
2006 11 12  1750    54051   64200      0    1.67e+00    0    1.15e+00
2006 11 12  1755    54051   64500      0    1.65e+00    0    1.15e+00
2006 11 12  1800    54051   64800      0    1.67e+00    0    1.16e+00
2006 11 12  1805    54051   65100      0    1.67e+00    0    1.15e+00
2006 11 12  1810    54051   65400      0    1.63e+00    0    1.12e+00
2006 11 12  1815    54051   65700      0    1.66e+00    0    1.15e+00
2006 11 12  1820    54051   66000      0    1.69e+00    0    1.18e+00
2006 11 12  1825    54051   66300      0    1.62e+00    0    1.13e+00
2006 11 12  1830    54051   66600      0    1.68e+00    0    1.17e+00
2006 11 12  1835    54051   66900      0    1.66e+00    0    1.17e+00
2006 11 12  1840    54051   67200      0    1.69e+00    0    1.17e+00
2006 11 12  1845    54051   67500      0    1.64e+00    0    1.14e+00
2006 11 12  1850    54051   67800      0    1.63e+00    0    1.14e+00
2006 11 12  1855    54051   68100      0    1.64e+00    0    1.14e+00
2006 11 12  1900    54051   68400      0    1.67e+00    0    1.15e+00
2006 11 12  1905    54051   68700      0    1.68e+00    0    1.17e+00
2006 11 12  1910    54051   69000      0    1.71e+00    0    1.19e+00
2006 11 12  1915    54051   69300      0    1.66e+00    0    1.15e+00
2006 11 12  1920    54051   69600      0    1.67e+00    0    1.16e+00
2006 11 12  1925    54051   69900      0    1.63e+00    0    1.13e+00
2006 11 12  1930    54051   70200      0    1.67e+00    0    1.16e+00
2006 11 12  1935    54051   70500      0    1.67e+00    0    1.17e+00
2006 11 12  1940    54051   70800      0    1.66e+00    0    1.16e+00
2006 11 12  1945    54051   71100      0    1.69e+00    0    1.17e+00
2006 11 12  1950    54051   71400      0    1.67e+00    0    1.17e+00
2006 11 12  1955    54051   71700      0    1.66e+00    0    1.15e+00
2006 11 12  2000    54051   72000      0    1.69e+00    0    1.18e+00
2006 11 12  2005    54051   72300      0    1.71e+00    0    1.19e+00
2006 11 12  2010    54051   72600      0    1.61e+00    0    1.11e+00
2006 11 12  2015    54051   72900      0    1.65e+00    0    1.14e+00
2006 11 12  2020    54051   73200      0    1.66e+00    0    1.15e+00
2006 11 12  2025    54051   73500      0    1.66e+00    0    1.16e+00
2006 11 12  2030    54051   73800      0    1.65e+00    0    1.14e+00
2006 11 12  2035    54051   74100      0    1.63e+00    0    1.14e+00
2006 11 12  2040    54051   74400      0    1.66e+00    0    1.15e+00
2006 11 12  2045    54051   74700      0    1.66e+00    0    1.15e+00
2006 11 12  2050    54051   75000      0    1.64e+00    0    1.15e+00
2006 11 12  2055    54051   75300      0    1.64e+00    0    1.14e+00
2006 11 12  2100    54051   75600      0    1.64e+00    0    1.13e+00
2006 11 12  2105    54051   75900      0    1.67e+00    0    1.16e+00
2006 11 12  2110    54051   76200      0    1.65e+00    0    1.14e+00
2006 11 12  2115    54051   76500      0    1.67e+00    0    1.17e+00
2006 11 12  2120    54051   76800      0    1.65e+00    0    1.14e+00
2006 11 12  2125    54051   77100      0    1.65e+00    0    1.14e+00
2006 11 12  2130    54051   77400      0    1.62e+00    0    1.12e+00
2006 11 12  2135    54051   77700      0    1.64e+00    0    1.13e+00
2006 11 12  2140    54051   78000      0    1.65e+00    0    1.15e+00
2006 11 12  2145    54051   78300      0    1.66e+00    0    1.16e+00
2006 11 12  2150    54051   78600      0    1.73e+00    0    1.23e+00
2006 11 12  2155    54051   78900      0    1.64e+00    0    1.15e+00
2006 11 12  2200    54051   79200      0    1.68e+00    0    1.17e+00
2006 11 12  2205    54051   79500      0    1.69e+00    0    1.17e+00
2006 11 12  2210    54051   79800      0    1.64e+00    0    1.15e+00
2006 11 12  2215    54051   80100      0    1.65e+00    0    1.15e+00
2006 11 12  2220    54051   80400      0    1.65e+00    0    1.14e+00
2006 11 12  2225    54051   80700      0    1.66e+00    0    1.16e+00
2006 11 12  2230    54051   81000      0    1.64e+00    0    1.15e+00
2006 11 12  2235    54051   81300      0    1.65e+00    0    1.16e+00
2006 11 12  2240    54051   81600      0    1.65e+00    0    1.14e+00
2006 11 12  2245    54051   81900      0    1.65e+00    0    1.15e+00
2006 11 12  2250    54051   82200      0    1.67e+00    0    1.17e+00
2006 11 12  2255    54051   82500      0    1.66e+00    0    1.15e+00
2006 11 12  2300    54051   82800      0    1.66e+00    0    1.15e+00
2006 11 12  2305    54051   83100      0    1.66e+00    0    1.16e+00
2006 11 12  2310    54051   83400      0    1.66e+00    0    1.16e+00
2006 11 12  2315    54051   83700      0    1.65e+00    0    1.16e+00
2006 11 12  2320    54051   84000      0    1.66e+00    0    1.15e+00
2006 11 12  2325    54051   84300      0    1.66e+00    0    1.16e+00
2006 11 12  2330    54051   84600      0    1.67e+00    0    1.16e+00
2006 11 12  2335    54051   84900      0    1.66e+00    0    1.15e+00
2006 11 12  2340    54051   85200      0    1.68e+00    0    1.16e+00
2006 11 12  2345    54051   85500      0    1.66e+00    0    1.16e+00
2006 11 12  2350    54051   85800      0    1.69e+00    0    1.17e+00
2006 11 12  2355    54051   86100      0    1.66e+00    0    1.15e+00
