:Data_list: 20061008_ace_sis_5m.txt
:Created: 2006 Oct 09 0011 UT
# Prepared by the U.S. Dept. of Commerce, NOAA, Space Environment Center.
# Please send comments and suggestions to SEC.Webmaster@noaa.gov 
# 
# Units: proton flux p/cs2-sec-ster
# Status(S): 0 = nominal data, 1 to 8 = bad data record, 9 = no data
# Missing data values: -1.00e+05
# Source: ACE Satellite - Solar Isotope Spectrometer
#
# 5-minute averaged Real-time Integral Flux of High-energy Solar Protons
# 
#                 Modified Seconds
# UT Date   Time   Julian  of the      ---- Integral Proton Flux ----
# YR MO DA  HHMM     Day     Day       S    > 10 MeV    S    > 30 MeV
#--------------------------------------------------------------------
2006 10 08  0000    54016       0      0    1.66e+00    0    1.15e+00
2006 10 08  0005    54016     300      0    1.67e+00    0    1.17e+00
2006 10 08  0010    54016     600      0    1.63e+00    0    1.14e+00
2006 10 08  0015    54016     900      0    1.62e+00    0    1.13e+00
2006 10 08  0020    54016    1200      0    1.62e+00    0    1.14e+00
2006 10 08  0025    54016    1500      0    1.64e+00    0    1.14e+00
2006 10 08  0030    54016    1800      0    1.67e+00    0    1.18e+00
2006 10 08  0035    54016    2100      0    1.66e+00    0    1.16e+00
2006 10 08  0040    54016    2400      0    1.66e+00    0    1.17e+00
2006 10 08  0045    54016    2700      0    1.67e+00    0    1.16e+00
2006 10 08  0050    54016    3000      0    1.64e+00    0    1.16e+00
2006 10 08  0055    54016    3300      0    1.65e+00    0    1.15e+00
2006 10 08  0100    54016    3600      0    1.66e+00    0    1.16e+00
2006 10 08  0105    54016    3900      0    1.66e+00    0    1.17e+00
2006 10 08  0110    54016    4200      0    1.67e+00    0    1.17e+00
2006 10 08  0115    54016    4500      0    1.66e+00    0    1.16e+00
2006 10 08  0120    54016    4800      0    1.64e+00    0    1.15e+00
2006 10 08  0125    54016    5100      0    1.65e+00    0    1.16e+00
2006 10 08  0130    54016    5400      0    1.67e+00    0    1.17e+00
2006 10 08  0135    54016    5700      0    1.68e+00    0    1.17e+00
2006 10 08  0140    54016    6000      0    1.65e+00    0    1.15e+00
2006 10 08  0145    54016    6300      0    1.67e+00    0    1.17e+00
2006 10 08  0150    54016    6600      0    1.64e+00    0    1.14e+00
2006 10 08  0155    54016    6900      0    1.64e+00    0    1.16e+00
2006 10 08  0200    54016    7200      0    1.65e+00    0    1.16e+00
2006 10 08  0205    54016    7500      0    1.66e+00    0    1.17e+00
2006 10 08  0210    54016    7800      0    1.67e+00    0    1.17e+00
2006 10 08  0215    54016    8100      0    1.66e+00    0    1.15e+00
2006 10 08  0220    54016    8400      0    1.67e+00    0    1.17e+00
2006 10 08  0225    54016    8700      0    1.65e+00    0    1.14e+00
2006 10 08  0230    54016    9000      0    1.63e+00    0    1.15e+00
2006 10 08  0235    54016    9300      0    1.68e+00    0    1.18e+00
2006 10 08  0240    54016    9600      0    1.65e+00    0    1.15e+00
2006 10 08  0245    54016    9900      0    1.66e+00    0    1.16e+00
2006 10 08  0250    54016   10200      0    1.64e+00    0    1.15e+00
2006 10 08  0255    54016   10500      0    1.70e+00    0    1.19e+00
2006 10 08  0300    54016   10800      0    1.56e+00    0    1.10e+00
2006 10 08  0305    54016   11100      0    1.67e+00    0    1.17e+00
2006 10 08  0310    54016   11400      0    1.64e+00    0    1.15e+00
2006 10 08  0315    54016   11700      0    1.67e+00    0    1.17e+00
2006 10 08  0320    54016   12000      0    1.64e+00    0    1.15e+00
2006 10 08  0325    54016   12300      0    1.61e+00    0    1.13e+00
2006 10 08  0330    54016   12600      0    1.69e+00    0    1.19e+00
2006 10 08  0335    54016   12900      0    1.67e+00    0    1.16e+00
2006 10 08  0340    54016   13200      0    1.68e+00    0    1.17e+00
2006 10 08  0345    54016   13500      0    1.68e+00    0    1.18e+00
2006 10 08  0350    54016   13800      0    1.68e+00    0    1.19e+00
2006 10 08  0355    54016   14100      0    1.67e+00    0    1.17e+00
2006 10 08  0400    54016   14400      0    1.63e+00    0    1.14e+00
2006 10 08  0405    54016   14700      0    1.68e+00    0    1.18e+00
2006 10 08  0410    54016   15000      0    1.65e+00    0    1.15e+00
2006 10 08  0415    54016   15300      0    1.66e+00    0    1.16e+00
2006 10 08  0420    54016   15600      0    1.70e+00    0    1.18e+00
2006 10 08  0425    54016   15900      0    1.66e+00    0    1.17e+00
2006 10 08  0430    54016   16200      0    1.65e+00    0    1.16e+00
2006 10 08  0435    54016   16500      0    1.68e+00    0    1.18e+00
2006 10 08  0440    54016   16800      0    1.65e+00    0    1.15e+00
2006 10 08  0445    54016   17100      0    1.69e+00    0    1.19e+00
2006 10 08  0450    54016   17400      0    1.65e+00    0    1.15e+00
2006 10 08  0455    54016   17700      0    1.69e+00    0    1.18e+00
2006 10 08  0500    54016   18000      0    1.71e+00    0    1.21e+00
2006 10 08  0505    54016   18300      0    1.70e+00    0    1.19e+00
2006 10 08  0510    54016   18600      0    1.65e+00    0    1.14e+00
2006 10 08  0515    54016   18900      0    1.69e+00    0    1.18e+00
2006 10 08  0520    54016   19200      0    1.63e+00    0    1.15e+00
2006 10 08  0525    54016   19500      0    1.66e+00    0    1.16e+00
2006 10 08  0530    54016   19800      0    1.66e+00    0    1.16e+00
2006 10 08  0535    54016   20100      0    1.65e+00    0    1.16e+00
2006 10 08  0540    54016   20400      0    1.65e+00    0    1.16e+00
2006 10 08  0545    54016   20700      0    1.64e+00    0    1.16e+00
2006 10 08  0550    54016   21000      0    1.65e+00    0    1.16e+00
2006 10 08  0555    54016   21300      0    1.66e+00    0    1.16e+00
2006 10 08  0600    54016   21600      0    1.67e+00    0    1.16e+00
2006 10 08  0605    54016   21900      0    1.67e+00    0    1.18e+00
2006 10 08  0610    54016   22200      0    1.66e+00    0    1.16e+00
2006 10 08  0615    54016   22500      0    1.66e+00    0    1.18e+00
2006 10 08  0620    54016   22800      0    1.68e+00    0    1.18e+00
2006 10 08  0625    54016   23100      0    1.64e+00    0    1.16e+00
2006 10 08  0630    54016   23400      0    1.68e+00    0    1.19e+00
2006 10 08  0635    54016   23700      0    1.65e+00    0    1.16e+00
2006 10 08  0640    54016   24000      0    1.68e+00    0    1.19e+00
2006 10 08  0645    54016   24300      0    1.67e+00    0    1.16e+00
2006 10 08  0650    54016   24600      0    1.64e+00    0    1.16e+00
2006 10 08  0655    54016   24900      0    1.66e+00    0    1.16e+00
2006 10 08  0700    54016   25200      0    1.65e+00    0    1.15e+00
2006 10 08  0705    54016   25500      0    1.65e+00    0    1.16e+00
2006 10 08  0710    54016   25800      0    1.66e+00    0    1.17e+00
2006 10 08  0715    54016   26100      0    1.66e+00    0    1.16e+00
2006 10 08  0720    54016   26400      0    1.67e+00    0    1.16e+00
2006 10 08  0725    54016   26700      0    1.70e+00    0    1.20e+00
2006 10 08  0730    54016   27000      0    1.64e+00    0    1.16e+00
2006 10 08  0735    54016   27300      0    1.65e+00    0    1.16e+00
2006 10 08  0740    54016   27600      0    1.64e+00    0    1.14e+00
2006 10 08  0745    54016   27900      0    1.68e+00    0    1.17e+00
2006 10 08  0750    54016   28200      0    1.63e+00    0    1.14e+00
2006 10 08  0755    54016   28500      0    1.67e+00    0    1.17e+00
2006 10 08  0800    54016   28800      0    1.64e+00    0    1.16e+00
2006 10 08  0805    54016   29100      0    1.62e+00    0    1.12e+00
2006 10 08  0810    54016   29400      0    1.70e+00    0    1.19e+00
2006 10 08  0815    54016   29700      0    1.61e+00    0    1.14e+00
2006 10 08  0820    54016   30000      0    1.67e+00    0    1.18e+00
2006 10 08  0825    54016   30300      0    1.65e+00    0    1.16e+00
2006 10 08  0830    54016   30600      0    1.67e+00    0    1.17e+00
2006 10 08  0835    54016   30900      0    1.66e+00    0    1.15e+00
2006 10 08  0840    54016   31200      0    1.67e+00    0    1.17e+00
2006 10 08  0845    54016   31500      0    1.64e+00    0    1.15e+00
2006 10 08  0850    54016   31800      0    1.66e+00    0    1.16e+00
2006 10 08  0855    54016   32100      0    1.66e+00    0    1.17e+00
2006 10 08  0900    54016   32400      0    1.69e+00    0    1.17e+00
2006 10 08  0905    54016   32700      0    1.67e+00    0    1.17e+00
2006 10 08  0910    54016   33000      0    1.67e+00    0    1.17e+00
2006 10 08  0915    54016   33300      0    1.67e+00    0    1.17e+00
2006 10 08  0920    54016   33600      0    1.66e+00    0    1.16e+00
2006 10 08  0925    54016   33900      0    1.70e+00    0    1.19e+00
2006 10 08  0930    54016   34200      0    1.67e+00    0    1.17e+00
2006 10 08  0935    54016   34500      0    1.66e+00    0    1.17e+00
2006 10 08  0940    54016   34800      0    1.62e+00    0    1.13e+00
2006 10 08  0945    54016   35100      0    1.66e+00    0    1.17e+00
2006 10 08  0950    54016   35400      0    1.65e+00    0    1.14e+00
2006 10 08  0955    54016   35700      0    1.67e+00    0    1.17e+00
2006 10 08  1000    54016   36000      0    1.69e+00    0    1.19e+00
2006 10 08  1005    54016   36300      0    1.68e+00    0    1.18e+00
2006 10 08  1010    54016   36600      0    1.67e+00    0    1.19e+00
2006 10 08  1015    54016   36900      0    1.64e+00    0    1.15e+00
2006 10 08  1020    54016   37200      0    1.71e+00    0    1.19e+00
2006 10 08  1025    54016   37500      0    1.64e+00    0    1.15e+00
2006 10 08  1030    54016   37800      0    1.68e+00    0    1.19e+00
2006 10 08  1035    54016   38100      0    1.64e+00    0    1.15e+00
2006 10 08  1040    54016   38400      0    1.68e+00    0    1.17e+00
2006 10 08  1045    54016   38700      0    1.73e+00    0    1.22e+00
2006 10 08  1050    54016   39000      0    1.69e+00    0    1.19e+00
2006 10 08  1055    54016   39300      0    1.69e+00    0    1.18e+00
2006 10 08  1100    54016   39600      0    1.67e+00    0    1.17e+00
2006 10 08  1105    54016   39900      0    1.66e+00    0    1.18e+00
2006 10 08  1110    54016   40200      0    1.68e+00    0    1.17e+00
2006 10 08  1115    54016   40500      0    1.64e+00    0    1.16e+00
2006 10 08  1120    54016   40800      0    1.67e+00    0    1.16e+00
2006 10 08  1125    54016   41100      0    1.70e+00    0    1.20e+00
2006 10 08  1130    54016   41400      0    1.64e+00    0    1.16e+00
2006 10 08  1135    54016   41700      0    1.71e+00    0    1.20e+00
2006 10 08  1140    54016   42000      0    1.65e+00    0    1.16e+00
2006 10 08  1145    54016   42300      0    1.66e+00    0    1.16e+00
2006 10 08  1150    54016   42600      0    1.67e+00    0    1.17e+00
2006 10 08  1155    54016   42900      0    1.70e+00    0    1.18e+00
2006 10 08  1200    54016   43200      0    1.66e+00    0    1.16e+00
2006 10 08  1205    54016   43500      0    1.66e+00    0    1.17e+00
2006 10 08  1210    54016   43800      0    1.65e+00    0    1.17e+00
2006 10 08  1215    54016   44100      0    1.72e+00    0    1.22e+00
2006 10 08  1220    54016   44400      0    1.68e+00    0    1.19e+00
2006 10 08  1225    54016   44700      0    1.66e+00    0    1.16e+00
2006 10 08  1230    54016   45000      0    1.68e+00    0    1.18e+00
2006 10 08  1235    54016   45300      0    1.68e+00    0    1.18e+00
2006 10 08  1240    54016   45600      0    1.69e+00    0    1.20e+00
2006 10 08  1245    54016   45900      0    1.71e+00    0    1.20e+00
2006 10 08  1250    54016   46200      0    1.66e+00    0    1.17e+00
2006 10 08  1255    54016   46500      0    1.68e+00    0    1.18e+00
2006 10 08  1300    54016   46800      0    1.71e+00    0    1.22e+00
2006 10 08  1305    54016   47100      0    1.69e+00    0    1.19e+00
2006 10 08  1310    54016   47400      0    1.66e+00    0    1.17e+00
2006 10 08  1315    54016   47700      0    1.70e+00    0    1.19e+00
2006 10 08  1320    54016   48000      0    1.67e+00    0    1.17e+00
2006 10 08  1325    54016   48300      0    1.67e+00    0    1.17e+00
2006 10 08  1330    54016   48600      0    1.66e+00    0    1.18e+00
2006 10 08  1335    54016   48900      0    1.71e+00    0    1.20e+00
2006 10 08  1340    54016   49200      0    1.65e+00    0    1.16e+00
2006 10 08  1345    54016   49500      0    1.65e+00    0    1.16e+00
2006 10 08  1350    54016   49800      0    1.69e+00    0    1.20e+00
2006 10 08  1355    54016   50100      0    1.63e+00    0    1.15e+00
2006 10 08  1400    54016   50400      0    1.63e+00    0    1.13e+00
2006 10 08  1405    54016   50700      0    1.66e+00    0    1.17e+00
2006 10 08  1410    54016   51000      0    1.63e+00    0    1.14e+00
2006 10 08  1415    54016   51300      0    1.64e+00    0    1.15e+00
2006 10 08  1420    54016   51600      0    1.66e+00    0    1.16e+00
2006 10 08  1425    54016   51900      0    1.67e+00    0    1.17e+00
2006 10 08  1430    54016   52200      0    1.66e+00    0    1.17e+00
2006 10 08  1435    54016   52500      0    1.67e+00    0    1.17e+00
2006 10 08  1440    54016   52800      0    1.65e+00    0    1.17e+00
2006 10 08  1445    54016   53100      0    1.69e+00    0    1.19e+00
2006 10 08  1450    54016   53400      0    1.67e+00    0    1.18e+00
2006 10 08  1455    54016   53700      0    1.69e+00    0    1.17e+00
2006 10 08  1500    54016   54000      0    1.66e+00    0    1.16e+00
2006 10 08  1505    54016   54300      0    1.66e+00    0    1.17e+00
2006 10 08  1510    54016   54600      0    1.66e+00    0    1.16e+00
2006 10 08  1515    54016   54900      0    1.66e+00    0    1.17e+00
2006 10 08  1520    54016   55200      0    1.67e+00    0    1.17e+00
2006 10 08  1525    54016   55500      0    1.66e+00    0    1.17e+00
2006 10 08  1530    54016   55800      0    1.67e+00    0    1.17e+00
2006 10 08  1535    54016   56100      0    1.65e+00    0    1.17e+00
2006 10 08  1540    54016   56400      0    1.66e+00    0    1.17e+00
2006 10 08  1545    54016   56700      0    1.68e+00    0    1.18e+00
2006 10 08  1550    54016   57000      0    1.64e+00    0    1.14e+00
2006 10 08  1555    54016   57300      0    1.64e+00    0    1.16e+00
2006 10 08  1600    54016   57600      0    1.64e+00    0    1.14e+00
2006 10 08  1605    54016   57900      0    1.67e+00    0    1.18e+00
2006 10 08  1610    54016   58200      0    1.71e+00    0    1.20e+00
2006 10 08  1615    54016   58500      0    1.66e+00    0    1.16e+00
2006 10 08  1620    54016   58800      0    1.68e+00    0    1.17e+00
2006 10 08  1625    54016   59100      0    1.69e+00    0    1.19e+00
2006 10 08  1630    54016   59400      0    1.66e+00    0    1.16e+00
2006 10 08  1635    54016   59700      0    1.61e+00    0    1.13e+00
2006 10 08  1640    54016   60000      0    1.63e+00    0    1.14e+00
2006 10 08  1645    54016   60300      0    1.62e+00    0    1.14e+00
2006 10 08  1650    54016   60600      0    1.67e+00    0    1.18e+00
2006 10 08  1655    54016   60900      0    1.67e+00    0    1.18e+00
2006 10 08  1700    54016   61200      0    1.69e+00    0    1.18e+00
2006 10 08  1705    54016   61500      0    1.67e+00    0    1.17e+00
2006 10 08  1710    54016   61800      0    1.62e+00    0    1.14e+00
2006 10 08  1715    54016   62100      0    1.68e+00    0    1.18e+00
2006 10 08  1720    54016   62400      0    1.67e+00    0    1.17e+00
2006 10 08  1725    54016   62700      0    1.69e+00    0    1.18e+00
2006 10 08  1730    54016   63000      0    1.65e+00    0    1.16e+00
2006 10 08  1735    54016   63300      0    1.69e+00    0    1.19e+00
2006 10 08  1740    54016   63600      0    1.67e+00    0    1.18e+00
2006 10 08  1745    54016   63900      0    1.67e+00    0    1.17e+00
2006 10 08  1750    54016   64200      0    1.67e+00    0    1.17e+00
2006 10 08  1755    54016   64500      0    1.66e+00    0    1.16e+00
2006 10 08  1800    54016   64800      0    1.67e+00    0    1.16e+00
2006 10 08  1805    54016   65100      0    1.69e+00    0    1.18e+00
2006 10 08  1810    54016   65400      0    1.62e+00    0    1.12e+00
2006 10 08  1815    54016   65700      0    1.67e+00    0    1.18e+00
2006 10 08  1820    54016   66000      0    1.63e+00    0    1.14e+00
2006 10 08  1825    54016   66300      0    1.68e+00    0    1.17e+00
2006 10 08  1830    54016   66600      0    1.68e+00    0    1.19e+00
2006 10 08  1835    54016   66900      0    1.68e+00    0    1.18e+00
2006 10 08  1840    54016   67200      0    1.66e+00    0    1.17e+00
2006 10 08  1845    54016   67500      0    1.70e+00    0    1.21e+00
2006 10 08  1850    54016   67800      0    1.66e+00    0    1.17e+00
2006 10 08  1855    54016   68100      0    1.62e+00    0    1.13e+00
2006 10 08  1900    54016   68400      0    1.68e+00    0    1.17e+00
2006 10 08  1905    54016   68700      0    1.66e+00    0    1.15e+00
2006 10 08  1910    54016   69000      0    1.66e+00    0    1.15e+00
2006 10 08  1915    54016   69300      0    1.70e+00    0    1.19e+00
2006 10 08  1920    54016   69600      0    1.68e+00    0    1.18e+00
2006 10 08  1925    54016   69900      0    1.69e+00    0    1.20e+00
2006 10 08  1930    54016   70200      0    1.69e+00    0    1.18e+00
2006 10 08  1935    54016   70500      0    1.69e+00    0    1.19e+00
2006 10 08  1940    54016   70800      0    1.68e+00    0    1.17e+00
2006 10 08  1945    54016   71100      0    1.67e+00    0    1.19e+00
2006 10 08  1950    54016   71400      0    1.65e+00    0    1.16e+00
2006 10 08  1955    54016   71700      0    1.71e+00    0    1.21e+00
2006 10 08  2000    54016   72000      0    1.65e+00    0    1.16e+00
2006 10 08  2005    54016   72300      0    1.68e+00    0    1.19e+00
2006 10 08  2010    54016   72600      0    1.69e+00    0    1.19e+00
2006 10 08  2015    54016   72900      0    1.67e+00    0    1.18e+00
2006 10 08  2020    54016   73200      0    1.67e+00    0    1.16e+00
2006 10 08  2025    54016   73500      0    1.67e+00    0    1.17e+00
2006 10 08  2030    54016   73800      0    1.67e+00    0    1.18e+00
2006 10 08  2035    54016   74100      0    1.66e+00    0    1.15e+00
2006 10 08  2040    54016   74400      0    1.68e+00    0    1.17e+00
2006 10 08  2045    54016   74700      0    1.67e+00    0    1.17e+00
2006 10 08  2050    54016   75000      0    1.68e+00    0    1.18e+00
2006 10 08  2055    54016   75300      0    1.68e+00    0    1.17e+00
2006 10 08  2100    54016   75600      0    1.65e+00    0    1.16e+00
2006 10 08  2105    54016   75900      0    1.71e+00    0    1.19e+00
2006 10 08  2110    54016   76200      0    1.63e+00    0    1.14e+00
2006 10 08  2115    54016   76500      0    1.67e+00    0    1.17e+00
2006 10 08  2120    54016   76800      0    1.68e+00    0    1.17e+00
2006 10 08  2125    54016   77100      0    1.65e+00    0    1.17e+00
2006 10 08  2130    54016   77400      0    1.71e+00    0    1.19e+00
2006 10 08  2135    54016   77700      0    1.68e+00    0    1.18e+00
2006 10 08  2140    54016   78000      0    1.65e+00    0    1.15e+00
2006 10 08  2145    54016   78300      0    1.62e+00    0    1.15e+00
2006 10 08  2150    54016   78600      0    1.67e+00    0    1.18e+00
2006 10 08  2155    54016   78900      0    1.64e+00    0    1.15e+00
2006 10 08  2200    54016   79200      9   -1.00e+05    9   -1.00e+05
2006 10 08  2205    54016   79500      9   -1.00e+05    9   -1.00e+05
2006 10 08  2210    54016   79800      9   -1.00e+05    9   -1.00e+05
2006 10 08  2215    54016   80100      9   -1.00e+05    9   -1.00e+05
2006 10 08  2220    54016   80400      9   -1.00e+05    9   -1.00e+05
2006 10 08  2225    54016   80700      0    1.67e+00    0    1.18e+00
2006 10 08  2230    54016   81000      0    1.66e+00    0    1.17e+00
2006 10 08  2235    54016   81300      0    1.68e+00    0    1.19e+00
2006 10 08  2240    54016   81600      0    1.64e+00    0    1.15e+00
2006 10 08  2245    54016   81900      0    1.66e+00    0    1.17e+00
2006 10 08  2250    54016   82200      0    1.65e+00    0    1.16e+00
2006 10 08  2255    54016   82500      0    1.66e+00    0    1.16e+00
2006 10 08  2300    54016   82800      0    1.66e+00    0    1.17e+00
2006 10 08  2305    54016   83100      0    1.69e+00    0    1.18e+00
2006 10 08  2310    54016   83400      0    1.67e+00    0    1.17e+00
2006 10 08  2315    54016   83700      0    1.65e+00    0    1.15e+00
2006 10 08  2320    54016   84000      0    1.65e+00    0    1.16e+00
2006 10 08  2325    54016   84300      0    1.66e+00    0    1.17e+00
2006 10 08  2330    54016   84600      0    1.67e+00    0    1.17e+00
2006 10 08  2335    54016   84900      0    1.69e+00    0    1.19e+00
2006 10 08  2340    54016   85200      0    1.65e+00    0    1.16e+00
2006 10 08  2345    54016   85500      0    1.67e+00    0    1.17e+00
2006 10 08  2350    54016   85800      0    1.66e+00    0    1.16e+00
2006 10 08  2355    54016   86100      0    1.66e+00    0    1.16e+00
