:Data_list: 20061101_ace_sis_5m.txt
:Created: 2006 Nov 02 0011 UT
# Prepared by the U.S. Dept. of Commerce, NOAA, Space Environment Center.
# Please send comments and suggestions to SEC.Webmaster@noaa.gov 
# 
# Units: proton flux p/cs2-sec-ster
# Status(S): 0 = nominal data, 1 to 8 = bad data record, 9 = no data
# Missing data values: -1.00e+05
# Source: ACE Satellite - Solar Isotope Spectrometer
#
# 5-minute averaged Real-time Integral Flux of High-energy Solar Protons
# 
#                 Modified Seconds
# UT Date   Time   Julian  of the      ---- Integral Proton Flux ----
# YR MO DA  HHMM     Day     Day       S    > 10 MeV    S    > 30 MeV
#--------------------------------------------------------------------
2006 11 01  0000    54040       0      0    1.73e+00    0    1.22e+00
2006 11 01  0005    54040     300      0    1.75e+00    0    1.23e+00
2006 11 01  0010    54040     600      0    1.71e+00    0    1.21e+00
2006 11 01  0015    54040     900      0    1.69e+00    0    1.18e+00
2006 11 01  0020    54040    1200      0    1.73e+00    0    1.20e+00
2006 11 01  0025    54040    1500      0    1.72e+00    0    1.20e+00
2006 11 01  0030    54040    1800      0    1.74e+00    0    1.22e+00
2006 11 01  0035    54040    2100      0    1.72e+00    0    1.21e+00
2006 11 01  0040    54040    2400      0    1.71e+00    0    1.20e+00
2006 11 01  0045    54040    2700      0    1.75e+00    0    1.23e+00
2006 11 01  0050    54040    3000      0    1.71e+00    0    1.19e+00
2006 11 01  0055    54040    3300      0    1.72e+00    0    1.19e+00
2006 11 01  0100    54040    3600      0    1.70e+00    0    1.19e+00
2006 11 01  0105    54040    3900      0    1.72e+00    0    1.21e+00
2006 11 01  0110    54040    4200      0    1.71e+00    0    1.20e+00
2006 11 01  0115    54040    4500      0    1.69e+00    0    1.19e+00
2006 11 01  0120    54040    4800      0    1.73e+00    0    1.21e+00
2006 11 01  0125    54040    5100      0    1.76e+00    0    1.25e+00
2006 11 01  0130    54040    5400      0    1.75e+00    0    1.22e+00
2006 11 01  0135    54040    5700      0    1.71e+00    0    1.20e+00
2006 11 01  0140    54040    6000      0    1.73e+00    0    1.22e+00
2006 11 01  0145    54040    6300      0    1.71e+00    0    1.20e+00
2006 11 01  0150    54040    6600      0    1.70e+00    0    1.20e+00
2006 11 01  0155    54040    6900      0    1.74e+00    0    1.22e+00
2006 11 01  0200    54040    7200      0    1.74e+00    0    1.22e+00
2006 11 01  0205    54040    7500      0    1.70e+00    0    1.19e+00
2006 11 01  0210    54040    7800      0    1.73e+00    0    1.21e+00
2006 11 01  0215    54040    8100      0    1.70e+00    0    1.19e+00
2006 11 01  0220    54040    8400      0    1.72e+00    0    1.20e+00
2006 11 01  0225    54040    8700      0    1.77e+00    0    1.25e+00
2006 11 01  0230    54040    9000      0    1.72e+00    0    1.20e+00
2006 11 01  0235    54040    9300      0    1.71e+00    0    1.20e+00
2006 11 01  0240    54040    9600      0    1.75e+00    0    1.24e+00
2006 11 01  0245    54040    9900      0    1.72e+00    0    1.20e+00
2006 11 01  0250    54040   10200      0    1.70e+00    0    1.19e+00
2006 11 01  0255    54040   10500      0    1.75e+00    0    1.24e+00
2006 11 01  0300    54040   10800      0    1.73e+00    0    1.22e+00
2006 11 01  0305    54040   11100      0    1.75e+00    0    1.22e+00
2006 11 01  0310    54040   11400      0    1.72e+00    0    1.20e+00
2006 11 01  0315    54040   11700      0    1.72e+00    0    1.20e+00
2006 11 01  0320    54040   12000      0    1.75e+00    0    1.21e+00
2006 11 01  0325    54040   12300      0    1.75e+00    0    1.22e+00
2006 11 01  0330    54040   12600      0    1.76e+00    0    1.24e+00
2006 11 01  0335    54040   12900      0    1.71e+00    0    1.19e+00
2006 11 01  0340    54040   13200      0    1.74e+00    0    1.23e+00
2006 11 01  0345    54040   13500      0    1.74e+00    0    1.21e+00
2006 11 01  0350    54040   13800      0    1.76e+00    0    1.23e+00
2006 11 01  0355    54040   14100      0    1.72e+00    0    1.21e+00
2006 11 01  0400    54040   14400      0    1.73e+00    0    1.22e+00
2006 11 01  0405    54040   14700      0    1.75e+00    0    1.22e+00
2006 11 01  0410    54040   15000      0    1.75e+00    0    1.24e+00
2006 11 01  0415    54040   15300      0    1.74e+00    0    1.23e+00
2006 11 01  0420    54040   15600      0    1.76e+00    0    1.23e+00
2006 11 01  0425    54040   15900      0    1.74e+00    0    1.23e+00
2006 11 01  0430    54040   16200      0    1.76e+00    0    1.23e+00
2006 11 01  0435    54040   16500      0    1.72e+00    0    1.20e+00
2006 11 01  0440    54040   16800      0    1.69e+00    0    1.20e+00
2006 11 01  0445    54040   17100      0    1.69e+00    0    1.17e+00
2006 11 01  0450    54040   17400      0    1.68e+00    0    1.17e+00
2006 11 01  0455    54040   17700      0    1.70e+00    0    1.20e+00
2006 11 01  0500    54040   18000      0    1.69e+00    0    1.19e+00
2006 11 01  0505    54040   18300      0    1.66e+00    0    1.16e+00
2006 11 01  0510    54040   18600      0    1.68e+00    0    1.18e+00
2006 11 01  0515    54040   18900      0    1.68e+00    0    1.18e+00
2006 11 01  0520    54040   19200      0    1.69e+00    0    1.18e+00
2006 11 01  0525    54040   19500      0    1.66e+00    0    1.17e+00
2006 11 01  0530    54040   19800      0    1.69e+00    0    1.19e+00
2006 11 01  0535    54040   20100      0    1.66e+00    0    1.16e+00
2006 11 01  0540    54040   20400      0    1.72e+00    0    1.20e+00
2006 11 01  0545    54040   20700      0    1.70e+00    0    1.20e+00
2006 11 01  0550    54040   21000      0    1.71e+00    0    1.21e+00
2006 11 01  0555    54040   21300      0    1.68e+00    0    1.18e+00
2006 11 01  0600    54040   21600      0    1.70e+00    0    1.20e+00
2006 11 01  0605    54040   21900      0    1.69e+00    0    1.18e+00
2006 11 01  0610    54040   22200      0    1.73e+00    0    1.22e+00
2006 11 01  0615    54040   22500      0    1.69e+00    0    1.18e+00
2006 11 01  0620    54040   22800      0    1.73e+00    0    1.21e+00
2006 11 01  0625    54040   23100      0    1.70e+00    0    1.19e+00
2006 11 01  0630    54040   23400      0    1.71e+00    0    1.19e+00
2006 11 01  0635    54040   23700      0    1.70e+00    0    1.19e+00
2006 11 01  0640    54040   24000      0    1.71e+00    0    1.19e+00
2006 11 01  0645    54040   24300      0    1.71e+00    0    1.20e+00
2006 11 01  0650    54040   24600      0    1.70e+00    0    1.20e+00
2006 11 01  0655    54040   24900      0    1.68e+00    0    1.18e+00
2006 11 01  0700    54040   25200      0    1.68e+00    0    1.18e+00
2006 11 01  0705    54040   25500      0    1.67e+00    0    1.18e+00
2006 11 01  0710    54040   25800      0    1.70e+00    0    1.19e+00
2006 11 01  0715    54040   26100      0    1.70e+00    0    1.19e+00
2006 11 01  0720    54040   26400      0    1.74e+00    0    1.22e+00
2006 11 01  0725    54040   26700      0    1.70e+00    0    1.20e+00
2006 11 01  0730    54040   27000      0    1.68e+00    0    1.18e+00
2006 11 01  0735    54040   27300      0    1.71e+00    0    1.19e+00
2006 11 01  0740    54040   27600      0    1.74e+00    0    1.22e+00
2006 11 01  0745    54040   27900      0    1.71e+00    0    1.19e+00
2006 11 01  0750    54040   28200      0    1.68e+00    0    1.18e+00
2006 11 01  0755    54040   28500      0    1.74e+00    0    1.22e+00
2006 11 01  0800    54040   28800      0    1.75e+00    0    1.23e+00
2006 11 01  0805    54040   29100      0    1.72e+00    0    1.21e+00
2006 11 01  0810    54040   29400      0    1.71e+00    0    1.19e+00
2006 11 01  0815    54040   29700      0    1.71e+00    0    1.20e+00
2006 11 01  0820    54040   30000      0    1.74e+00    0    1.21e+00
2006 11 01  0825    54040   30300      0    1.69e+00    0    1.18e+00
2006 11 01  0830    54040   30600      0    1.70e+00    0    1.18e+00
2006 11 01  0835    54040   30900      0    1.74e+00    0    1.21e+00
2006 11 01  0840    54040   31200      0    1.73e+00    0    1.21e+00
2006 11 01  0845    54040   31500      0    1.72e+00    0    1.20e+00
2006 11 01  0850    54040   31800      0    1.74e+00    0    1.21e+00
2006 11 01  0855    54040   32100      0    1.73e+00    0    1.21e+00
2006 11 01  0900    54040   32400      0    1.70e+00    0    1.21e+00
2006 11 01  0905    54040   32700      0    1.72e+00    0    1.19e+00
2006 11 01  0910    54040   33000      0    1.70e+00    0    1.18e+00
2006 11 01  0915    54040   33300      0    1.69e+00    0    1.18e+00
2006 11 01  0920    54040   33600      0    1.72e+00    0    1.21e+00
2006 11 01  0925    54040   33900      0    1.75e+00    0    1.23e+00
2006 11 01  0930    54040   34200      0    1.71e+00    0    1.20e+00
2006 11 01  0935    54040   34500      0    1.72e+00    0    1.21e+00
2006 11 01  0940    54040   34800      0    1.74e+00    0    1.22e+00
2006 11 01  0945    54040   35100      0    1.69e+00    0    1.18e+00
2006 11 01  0950    54040   35400      0    1.70e+00    0    1.20e+00
2006 11 01  0955    54040   35700      0    1.71e+00    0    1.20e+00
2006 11 01  1000    54040   36000      0    1.73e+00    0    1.22e+00
2006 11 01  1005    54040   36300      0    1.75e+00    0    1.21e+00
2006 11 01  1010    54040   36600      0    1.71e+00    0    1.19e+00
2006 11 01  1015    54040   36900      0    1.72e+00    0    1.21e+00
2006 11 01  1020    54040   37200      0    1.72e+00    0    1.21e+00
2006 11 01  1025    54040   37500      0    1.74e+00    0    1.22e+00
2006 11 01  1030    54040   37800      0    1.70e+00    0    1.18e+00
2006 11 01  1035    54040   38100      0    1.74e+00    0    1.22e+00
2006 11 01  1040    54040   38400      0    1.75e+00    0    1.22e+00
2006 11 01  1045    54040   38700      0    1.70e+00    0    1.20e+00
2006 11 01  1050    54040   39000      0    1.71e+00    0    1.20e+00
2006 11 01  1055    54040   39300      0    1.74e+00    0    1.21e+00
2006 11 01  1100    54040   39600      0    1.74e+00    0    1.23e+00
2006 11 01  1105    54040   39900      0    1.72e+00    0    1.19e+00
2006 11 01  1110    54040   40200      0    1.71e+00    0    1.20e+00
2006 11 01  1115    54040   40500      0    1.73e+00    0    1.21e+00
2006 11 01  1120    54040   40800      0    1.73e+00    0    1.20e+00
2006 11 01  1125    54040   41100      0    1.73e+00    0    1.22e+00
2006 11 01  1130    54040   41400      0    1.72e+00    0    1.22e+00
2006 11 01  1135    54040   41700      0    1.72e+00    0    1.20e+00
2006 11 01  1140    54040   42000      0    1.73e+00    0    1.21e+00
2006 11 01  1145    54040   42300      0    1.75e+00    0    1.22e+00
2006 11 01  1150    54040   42600      0    1.74e+00    0    1.23e+00
2006 11 01  1155    54040   42900      0    1.73e+00    0    1.21e+00
2006 11 01  1200    54040   43200      0    1.72e+00    0    1.20e+00
2006 11 01  1205    54040   43500      0    1.76e+00    0    1.23e+00
2006 11 01  1210    54040   43800      0    1.70e+00    0    1.20e+00
2006 11 01  1215    54040   44100      0    1.72e+00    0    1.21e+00
2006 11 01  1220    54040   44400      0    1.73e+00    0    1.21e+00
2006 11 01  1225    54040   44700      0    1.73e+00    0    1.21e+00
2006 11 01  1230    54040   45000      0    1.75e+00    0    1.24e+00
2006 11 01  1235    54040   45300      0    1.72e+00    0    1.21e+00
2006 11 01  1240    54040   45600      0    1.70e+00    0    1.20e+00
2006 11 01  1245    54040   45900      0    1.70e+00    0    1.19e+00
2006 11 01  1250    54040   46200      0    1.71e+00    0    1.21e+00
2006 11 01  1255    54040   46500      0    1.71e+00    0    1.19e+00
2006 11 01  1300    54040   46800      0    1.74e+00    0    1.22e+00
2006 11 01  1305    54040   47100      0    1.72e+00    0    1.22e+00
2006 11 01  1310    54040   47400      0    1.74e+00    0    1.22e+00
2006 11 01  1315    54040   47700      0    1.72e+00    0    1.20e+00
2006 11 01  1320    54040   48000      0    1.73e+00    0    1.21e+00
2006 11 01  1325    54040   48300      0    1.74e+00    0    1.22e+00
2006 11 01  1330    54040   48600      0    1.71e+00    0    1.19e+00
2006 11 01  1335    54040   48900      0    1.73e+00    0    1.22e+00
2006 11 01  1340    54040   49200      0    1.76e+00    0    1.24e+00
2006 11 01  1345    54040   49500      0    1.69e+00    0    1.18e+00
2006 11 01  1350    54040   49800      0    1.72e+00    0    1.21e+00
2006 11 01  1355    54040   50100      0    1.74e+00    0    1.22e+00
2006 11 01  1400    54040   50400      0    1.73e+00    0    1.20e+00
2006 11 01  1405    54040   50700      0    1.72e+00    0    1.22e+00
2006 11 01  1410    54040   51000      0    1.70e+00    0    1.20e+00
2006 11 01  1415    54040   51300      0    1.72e+00    0    1.22e+00
2006 11 01  1420    54040   51600      0    1.72e+00    0    1.21e+00
2006 11 01  1425    54040   51900      0    1.71e+00    0    1.21e+00
2006 11 01  1430    54040   52200      0    1.74e+00    0    1.23e+00
2006 11 01  1435    54040   52500      0    1.69e+00    0    1.19e+00
2006 11 01  1440    54040   52800      0    1.77e+00    0    1.24e+00
2006 11 01  1445    54040   53100      0    1.77e+00    0    1.24e+00
2006 11 01  1450    54040   53400      0    1.74e+00    0    1.22e+00
2006 11 01  1455    54040   53700      0    1.71e+00    0    1.20e+00
2006 11 01  1500    54040   54000      0    1.71e+00    0    1.19e+00
2006 11 01  1505    54040   54300      0    1.74e+00    0    1.22e+00
2006 11 01  1510    54040   54600      0    1.72e+00    0    1.19e+00
2006 11 01  1515    54040   54900      0    1.75e+00    0    1.23e+00
2006 11 01  1520    54040   55200      0    1.70e+00    0    1.19e+00
2006 11 01  1525    54040   55500      0    1.70e+00    0    1.20e+00
2006 11 01  1530    54040   55800      0    1.72e+00    0    1.20e+00
2006 11 01  1535    54040   56100      0    1.72e+00    0    1.22e+00
2006 11 01  1540    54040   56400      0    1.71e+00    0    1.18e+00
2006 11 01  1545    54040   56700      0    1.73e+00    0    1.21e+00
2006 11 01  1550    54040   57000      0    1.73e+00    0    1.21e+00
2006 11 01  1555    54040   57300      0    1.73e+00    0    1.20e+00
2006 11 01  1600    54040   57600      0    1.71e+00    0    1.20e+00
2006 11 01  1605    54040   57900      0    1.74e+00    0    1.21e+00
2006 11 01  1610    54040   58200      0    1.70e+00    0    1.20e+00
2006 11 01  1615    54040   58500      0    1.69e+00    0    1.18e+00
2006 11 01  1620    54040   58800      0    1.73e+00    0    1.22e+00
2006 11 01  1625    54040   59100      0    1.73e+00    0    1.24e+00
2006 11 01  1630    54040   59400      0    1.72e+00    0    1.21e+00
2006 11 01  1635    54040   59700      0    1.72e+00    0    1.20e+00
2006 11 01  1640    54040   60000      0    1.76e+00    0    1.23e+00
2006 11 01  1645    54040   60300      0    1.73e+00    0    1.22e+00
2006 11 01  1650    54040   60600      0    1.73e+00    0    1.22e+00
2006 11 01  1655    54040   60900      0    1.74e+00    0    1.22e+00
2006 11 01  1700    54040   61200      0    1.73e+00    0    1.21e+00
2006 11 01  1705    54040   61500      0    1.70e+00    0    1.19e+00
2006 11 01  1710    54040   61800      0    1.71e+00    0    1.21e+00
2006 11 01  1715    54040   62100      0    1.75e+00    0    1.23e+00
2006 11 01  1720    54040   62400      0    1.75e+00    0    1.23e+00
2006 11 01  1725    54040   62700      0    1.76e+00    0    1.24e+00
2006 11 01  1730    54040   63000      0    1.75e+00    0    1.22e+00
2006 11 01  1735    54040   63300      0    1.77e+00    0    1.24e+00
2006 11 01  1740    54040   63600      0    1.70e+00    0    1.19e+00
2006 11 01  1745    54040   63900      0    1.74e+00    0    1.22e+00
2006 11 01  1750    54040   64200      0    1.72e+00    0    1.20e+00
2006 11 01  1755    54040   64500      0    1.73e+00    0    1.21e+00
2006 11 01  1800    54040   64800      0    1.69e+00    0    1.19e+00
2006 11 01  1805    54040   65100      0    1.69e+00    0    1.18e+00
2006 11 01  1810    54040   65400      0    1.73e+00    0    1.21e+00
2006 11 01  1815    54040   65700      0    1.73e+00    0    1.23e+00
2006 11 01  1820    54040   66000      0    1.77e+00    0    1.24e+00
2006 11 01  1825    54040   66300      0    1.73e+00    0    1.21e+00
2006 11 01  1830    54040   66600      0    1.71e+00    0    1.21e+00
2006 11 01  1835    54040   66900      0    1.72e+00    0    1.20e+00
2006 11 01  1840    54040   67200      0    1.69e+00    0    1.19e+00
2006 11 01  1845    54040   67500      0    1.70e+00    0    1.19e+00
2006 11 01  1850    54040   67800      0    1.73e+00    0    1.22e+00
2006 11 01  1855    54040   68100      0    1.68e+00    0    1.18e+00
2006 11 01  1900    54040   68400      0    1.73e+00    0    1.23e+00
2006 11 01  1905    54040   68700      0    1.74e+00    0    1.22e+00
2006 11 01  1910    54040   69000      0    1.73e+00    0    1.20e+00
2006 11 01  1915    54040   69300      0    1.76e+00    0    1.23e+00
2006 11 01  1920    54040   69600      0    1.74e+00    0    1.21e+00
2006 11 01  1925    54040   69900      0    1.71e+00    0    1.21e+00
2006 11 01  1930    54040   70200      0    1.68e+00    0    1.19e+00
2006 11 01  1935    54040   70500      0    1.73e+00    0    1.22e+00
2006 11 01  1940    54040   70800      0    1.72e+00    0    1.20e+00
2006 11 01  1945    54040   71100      0    1.69e+00    0    1.17e+00
2006 11 01  1950    54040   71400      0    1.77e+00    0    1.23e+00
2006 11 01  1955    54040   71700      0    1.71e+00    0    1.20e+00
2006 11 01  2000    54040   72000      0    1.64e+00    0    1.13e+00
2006 11 01  2005    54040   72300      0    1.74e+00    0    1.24e+00
2006 11 01  2010    54040   72600      0    1.73e+00    0    1.21e+00
2006 11 01  2015    54040   72900      0    1.72e+00    0    1.21e+00
2006 11 01  2020    54040   73200      0    1.72e+00    0    1.21e+00
2006 11 01  2025    54040   73500      0    1.68e+00    0    1.18e+00
2006 11 01  2030    54040   73800      0    1.77e+00    0    1.24e+00
2006 11 01  2035    54040   74100      0    1.75e+00    0    1.23e+00
2006 11 01  2040    54040   74400      0    1.71e+00    0    1.20e+00
2006 11 01  2045    54040   74700      0    1.74e+00    0    1.22e+00
2006 11 01  2050    54040   75000      0    1.74e+00    0    1.22e+00
2006 11 01  2055    54040   75300      0    1.73e+00    0    1.22e+00
2006 11 01  2100    54040   75600      0    1.74e+00    0    1.21e+00
2006 11 01  2105    54040   75900      0    1.81e+00    0    1.25e+00
2006 11 01  2110    54040   76200      9   -1.00e+05    9   -1.00e+05
2006 11 01  2115    54040   76500      9   -1.00e+05    9   -1.00e+05
2006 11 01  2120    54040   76800      9   -1.00e+05    9   -1.00e+05
2006 11 01  2125    54040   77100      0    1.70e+00    0    1.17e+00
2006 11 01  2130    54040   77400      0    1.73e+00    0    1.21e+00
2006 11 01  2135    54040   77700      0    1.74e+00    0    1.23e+00
2006 11 01  2140    54040   78000      0    1.71e+00    0    1.20e+00
2006 11 01  2145    54040   78300      0    1.69e+00    0    1.18e+00
2006 11 01  2150    54040   78600      0    1.76e+00    0    1.25e+00
2006 11 01  2155    54040   78900      0    1.72e+00    0    1.21e+00
2006 11 01  2200    54040   79200      0    1.73e+00    0    1.21e+00
2006 11 01  2205    54040   79500      0    1.75e+00    0    1.23e+00
2006 11 01  2210    54040   79800      0    1.70e+00    0    1.20e+00
2006 11 01  2215    54040   80100      0    1.73e+00    0    1.21e+00
2006 11 01  2220    54040   80400      0    1.69e+00    0    1.20e+00
2006 11 01  2225    54040   80700      0    1.67e+00    0    1.18e+00
2006 11 01  2230    54040   81000      0    1.72e+00    0    1.20e+00
2006 11 01  2235    54040   81300      0    1.72e+00    0    1.21e+00
2006 11 01  2240    54040   81600      0    1.71e+00    0    1.20e+00
2006 11 01  2245    54040   81900      0    1.70e+00    0    1.19e+00
2006 11 01  2250    54040   82200      0    1.74e+00    0    1.22e+00
2006 11 01  2255    54040   82500      0    1.73e+00    0    1.21e+00
2006 11 01  2300    54040   82800      0    1.71e+00    0    1.20e+00
2006 11 01  2305    54040   83100      0    1.73e+00    0    1.21e+00
2006 11 01  2310    54040   83400      0    1.69e+00    0    1.19e+00
2006 11 01  2315    54040   83700      0    1.71e+00    0    1.19e+00
2006 11 01  2320    54040   84000      0    1.71e+00    0    1.19e+00
2006 11 01  2325    54040   84300      0    1.73e+00    0    1.21e+00
2006 11 01  2330    54040   84600      0    1.71e+00    0    1.21e+00
2006 11 01  2335    54040   84900      0    1.71e+00    0    1.20e+00
2006 11 01  2340    54040   85200      0    1.70e+00    0    1.21e+00
2006 11 01  2345    54040   85500      0    1.72e+00    0    1.21e+00
2006 11 01  2350    54040   85800      0    1.66e+00    0    1.15e+00
2006 11 01  2355    54040   86100      0    1.72e+00    0    1.20e+00
