:Data_list: 20061029_ace_sis_5m.txt
:Created: 2006 Oct 30 0011 UT
# Prepared by the U.S. Dept. of Commerce, NOAA, Space Environment Center.
# Please send comments and suggestions to SEC.Webmaster@noaa.gov 
# 
# Units: proton flux p/cs2-sec-ster
# Status(S): 0 = nominal data, 1 to 8 = bad data record, 9 = no data
# Missing data values: -1.00e+05
# Source: ACE Satellite - Solar Isotope Spectrometer
#
# 5-minute averaged Real-time Integral Flux of High-energy Solar Protons
# 
#                 Modified Seconds
# UT Date   Time   Julian  of the      ---- Integral Proton Flux ----
# YR MO DA  HHMM     Day     Day       S    > 10 MeV    S    > 30 MeV
#--------------------------------------------------------------------
2006 10 29  0000    54037       0      0    1.70e+00    0    1.20e+00
2006 10 29  0005    54037     300      0    1.70e+00    0    1.19e+00
2006 10 29  0010    54037     600      0    1.69e+00    0    1.18e+00
2006 10 29  0015    54037     900      0    1.68e+00    0    1.17e+00
2006 10 29  0020    54037    1200      0    1.70e+00    0    1.19e+00
2006 10 29  0025    54037    1500      0    1.71e+00    0    1.21e+00
2006 10 29  0030    54037    1800      0    1.71e+00    0    1.20e+00
2006 10 29  0035    54037    2100      0    1.66e+00    0    1.16e+00
2006 10 29  0040    54037    2400      0    1.69e+00    0    1.18e+00
2006 10 29  0045    54037    2700      0    1.69e+00    0    1.17e+00
2006 10 29  0050    54037    3000      0    1.70e+00    0    1.19e+00
2006 10 29  0055    54037    3300      0    1.69e+00    0    1.18e+00
2006 10 29  0100    54037    3600      0    1.68e+00    0    1.18e+00
2006 10 29  0105    54037    3900      0    1.70e+00    0    1.19e+00
2006 10 29  0110    54037    4200      0    1.69e+00    0    1.18e+00
2006 10 29  0115    54037    4500      0    1.70e+00    0    1.19e+00
2006 10 29  0120    54037    4800      0    1.69e+00    0    1.18e+00
2006 10 29  0125    54037    5100      0    1.68e+00    0    1.18e+00
2006 10 29  0130    54037    5400      0    1.69e+00    0    1.18e+00
2006 10 29  0135    54037    5700      0    1.68e+00    0    1.19e+00
2006 10 29  0140    54037    6000      0    1.73e+00    0    1.21e+00
2006 10 29  0145    54037    6300      0    1.68e+00    0    1.17e+00
2006 10 29  0150    54037    6600      0    1.71e+00    0    1.20e+00
2006 10 29  0155    54037    6900      0    1.69e+00    0    1.19e+00
2006 10 29  0200    54037    7200      0    1.70e+00    0    1.20e+00
2006 10 29  0205    54037    7500      0    1.65e+00    0    1.16e+00
2006 10 29  0210    54037    7800      0    1.72e+00    0    1.20e+00
2006 10 29  0215    54037    8100      0    1.70e+00    0    1.20e+00
2006 10 29  0220    54037    8400      0    1.65e+00    0    1.16e+00
2006 10 29  0225    54037    8700      0    1.69e+00    0    1.18e+00
2006 10 29  0230    54037    9000      0    1.71e+00    0    1.19e+00
2006 10 29  0235    54037    9300      0    1.70e+00    0    1.19e+00
2006 10 29  0240    54037    9600      0    1.68e+00    0    1.17e+00
2006 10 29  0245    54037    9900      0    1.67e+00    0    1.16e+00
2006 10 29  0250    54037   10200      0    1.70e+00    0    1.18e+00
2006 10 29  0255    54037   10500      0    1.68e+00    0    1.17e+00
2006 10 29  0300    54037   10800      0    1.71e+00    0    1.20e+00
2006 10 29  0305    54037   11100      0    1.69e+00    0    1.18e+00
2006 10 29  0310    54037   11400      0    1.65e+00    0    1.16e+00
2006 10 29  0315    54037   11700      0    1.67e+00    0    1.17e+00
2006 10 29  0320    54037   12000      0    1.70e+00    0    1.19e+00
2006 10 29  0325    54037   12300      0    1.65e+00    0    1.15e+00
2006 10 29  0330    54037   12600      0    1.68e+00    0    1.17e+00
2006 10 29  0335    54037   12900      0    1.66e+00    0    1.16e+00
2006 10 29  0340    54037   13200      0    1.67e+00    0    1.17e+00
2006 10 29  0345    54037   13500      0    1.68e+00    0    1.18e+00
2006 10 29  0350    54037   13800      0    1.69e+00    0    1.16e+00
2006 10 29  0355    54037   14100      0    1.69e+00    0    1.18e+00
2006 10 29  0400    54037   14400      0    1.69e+00    0    1.19e+00
2006 10 29  0405    54037   14700      0    1.66e+00    0    1.15e+00
2006 10 29  0410    54037   15000      0    1.69e+00    0    1.18e+00
2006 10 29  0415    54037   15300      0    1.63e+00    0    1.15e+00
2006 10 29  0420    54037   15600      0    1.71e+00    0    1.21e+00
2006 10 29  0425    54037   15900      0    1.69e+00    0    1.18e+00
2006 10 29  0430    54037   16200      0    1.64e+00    0    1.14e+00
2006 10 29  0435    54037   16500      0    1.67e+00    0    1.16e+00
2006 10 29  0440    54037   16800      0    1.69e+00    0    1.19e+00
2006 10 29  0445    54037   17100      0    1.71e+00    0    1.21e+00
2006 10 29  0450    54037   17400      0    1.71e+00    0    1.20e+00
2006 10 29  0455    54037   17700      0    1.72e+00    0    1.21e+00
2006 10 29  0500    54037   18000      0    1.68e+00    0    1.19e+00
2006 10 29  0505    54037   18300      0    1.70e+00    0    1.18e+00
2006 10 29  0510    54037   18600      0    1.69e+00    0    1.19e+00
2006 10 29  0515    54037   18900      0    1.66e+00    0    1.17e+00
2006 10 29  0520    54037   19200      0    1.72e+00    0    1.20e+00
2006 10 29  0525    54037   19500      0    1.69e+00    0    1.19e+00
2006 10 29  0530    54037   19800      0    1.68e+00    0    1.18e+00
2006 10 29  0535    54037   20100      0    1.69e+00    0    1.18e+00
2006 10 29  0540    54037   20400      0    1.68e+00    0    1.19e+00
2006 10 29  0545    54037   20700      0    1.69e+00    0    1.18e+00
2006 10 29  0550    54037   21000      0    1.68e+00    0    1.17e+00
2006 10 29  0555    54037   21300      0    1.67e+00    0    1.17e+00
2006 10 29  0600    54037   21600      0    1.66e+00    0    1.16e+00
2006 10 29  0605    54037   21900      0    1.68e+00    0    1.18e+00
2006 10 29  0610    54037   22200      0    1.70e+00    0    1.18e+00
2006 10 29  0615    54037   22500      0    1.69e+00    0    1.18e+00
2006 10 29  0620    54037   22800      0    1.70e+00    0    1.18e+00
2006 10 29  0625    54037   23100      0    1.71e+00    0    1.20e+00
2006 10 29  0630    54037   23400      0    1.72e+00    0    1.19e+00
2006 10 29  0635    54037   23700      0    1.69e+00    0    1.19e+00
2006 10 29  0640    54037   24000      0    1.69e+00    0    1.18e+00
2006 10 29  0645    54037   24300      0    1.70e+00    0    1.19e+00
2006 10 29  0650    54037   24600      0    1.69e+00    0    1.20e+00
2006 10 29  0655    54037   24900      0    1.73e+00    0    1.23e+00
2006 10 29  0700    54037   25200      0    1.69e+00    0    1.18e+00
2006 10 29  0705    54037   25500      0    1.67e+00    0    1.18e+00
2006 10 29  0710    54037   25800      0    1.66e+00    0    1.16e+00
2006 10 29  0715    54037   26100      0    1.64e+00    0    1.15e+00
2006 10 29  0720    54037   26400      9   -1.00e+05    9   -1.00e+05
2006 10 29  0725    54037   26700      9   -1.00e+05    9   -1.00e+05
2006 10 29  0730    54037   27000      9   -1.00e+05    9   -1.00e+05
2006 10 29  0735    54037   27300      9   -1.00e+05    9   -1.00e+05
2006 10 29  0740    54037   27600      9   -1.00e+05    9   -1.00e+05
2006 10 29  0745    54037   27900      9   -1.00e+05    9   -1.00e+05
2006 10 29  0750    54037   28200      9   -1.00e+05    9   -1.00e+05
2006 10 29  0755    54037   28500      9   -1.00e+05    9   -1.00e+05
2006 10 29  0800    54037   28800      9   -1.00e+05    9   -1.00e+05
2006 10 29  0805    54037   29100      9   -1.00e+05    9   -1.00e+05
2006 10 29  0810    54037   29400      9   -1.00e+05    9   -1.00e+05
2006 10 29  0815    54037   29700      9   -1.00e+05    9   -1.00e+05
2006 10 29  0820    54037   30000      9   -1.00e+05    9   -1.00e+05
2006 10 29  0825    54037   30300      9   -1.00e+05    9   -1.00e+05
2006 10 29  0830    54037   30600      9   -1.00e+05    9   -1.00e+05
2006 10 29  0835    54037   30900      9   -1.00e+05    9   -1.00e+05
2006 10 29  0840    54037   31200      9   -1.00e+05    9   -1.00e+05
2006 10 29  0845    54037   31500      9   -1.00e+05    9   -1.00e+05
2006 10 29  0850    54037   31800      9   -1.00e+05    9   -1.00e+05
2006 10 29  0855    54037   32100      9   -1.00e+05    9   -1.00e+05
2006 10 29  0900    54037   32400      9   -1.00e+05    9   -1.00e+05
2006 10 29  0905    54037   32700      9   -1.00e+05    9   -1.00e+05
2006 10 29  0910    54037   33000      9   -1.00e+05    9   -1.00e+05
2006 10 29  0915    54037   33300      9   -1.00e+05    9   -1.00e+05
2006 10 29  0920    54037   33600      9   -1.00e+05    9   -1.00e+05
2006 10 29  0925    54037   33900      0    1.67e+00    0    1.18e+00
2006 10 29  0930    54037   34200      0    1.71e+00    0    1.20e+00
2006 10 29  0935    54037   34500      0    1.71e+00    0    1.20e+00
2006 10 29  0940    54037   34800      0    1.71e+00    0    1.19e+00
2006 10 29  0945    54037   35100      0    1.73e+00    0    1.21e+00
2006 10 29  0950    54037   35400      0    1.66e+00    0    1.17e+00
2006 10 29  0955    54037   35700      0    1.75e+00    0    1.23e+00
2006 10 29  1000    54037   36000      0    1.71e+00    0    1.21e+00
2006 10 29  1005    54037   36300      0    1.70e+00    0    1.19e+00
2006 10 29  1010    54037   36600      0    1.71e+00    0    1.21e+00
2006 10 29  1015    54037   36900      0    1.68e+00    0    1.18e+00
2006 10 29  1020    54037   37200      0    1.67e+00    0    1.17e+00
2006 10 29  1025    54037   37500      0    1.70e+00    0    1.20e+00
2006 10 29  1030    54037   37800      0    1.67e+00    0    1.17e+00
2006 10 29  1035    54037   38100      0    1.68e+00    0    1.17e+00
2006 10 29  1040    54037   38400      0    1.71e+00    0    1.20e+00
2006 10 29  1045    54037   38700      0    1.72e+00    0    1.21e+00
2006 10 29  1050    54037   39000      0    1.72e+00    0    1.20e+00
2006 10 29  1055    54037   39300      0    1.71e+00    0    1.20e+00
2006 10 29  1100    54037   39600      0    1.70e+00    0    1.18e+00
2006 10 29  1105    54037   39900      0    1.69e+00    0    1.18e+00
2006 10 29  1110    54037   40200      0    1.71e+00    0    1.21e+00
2006 10 29  1115    54037   40500      0    1.71e+00    0    1.22e+00
2006 10 29  1120    54037   40800      0    1.70e+00    0    1.20e+00
2006 10 29  1125    54037   41100      0    1.69e+00    0    1.19e+00
2006 10 29  1130    54037   41400      0    1.69e+00    0    1.19e+00
2006 10 29  1135    54037   41700      0    1.68e+00    0    1.18e+00
2006 10 29  1140    54037   42000      0    1.70e+00    0    1.20e+00
2006 10 29  1145    54037   42300      0    1.72e+00    0    1.21e+00
2006 10 29  1150    54037   42600      0    1.71e+00    0    1.19e+00
2006 10 29  1155    54037   42900      0    1.72e+00    0    1.21e+00
2006 10 29  1200    54037   43200      0    1.69e+00    0    1.18e+00
2006 10 29  1205    54037   43500      0    1.73e+00    0    1.21e+00
2006 10 29  1210    54037   43800      0    1.71e+00    0    1.20e+00
2006 10 29  1215    54037   44100      0    1.69e+00    0    1.17e+00
2006 10 29  1220    54037   44400      0    1.71e+00    0    1.19e+00
2006 10 29  1225    54037   44700      0    1.71e+00    0    1.19e+00
2006 10 29  1230    54037   45000      0    1.65e+00    0    1.15e+00
2006 10 29  1235    54037   45300      0    1.71e+00    0    1.21e+00
2006 10 29  1240    54037   45600      0    1.69e+00    0    1.19e+00
2006 10 29  1245    54037   45900      0    1.68e+00    0    1.18e+00
2006 10 29  1250    54037   46200      0    1.68e+00    0    1.18e+00
2006 10 29  1255    54037   46500      0    1.65e+00    0    1.15e+00
2006 10 29  1300    54037   46800      0    1.71e+00    0    1.21e+00
2006 10 29  1305    54037   47100      0    1.69e+00    0    1.18e+00
2006 10 29  1310    54037   47400      0    1.74e+00    0    1.22e+00
2006 10 29  1315    54037   47700      0    1.75e+00    0    1.24e+00
2006 10 29  1320    54037   48000      0    1.68e+00    0    1.18e+00
2006 10 29  1325    54037   48300      0    1.72e+00    0    1.19e+00
2006 10 29  1330    54037   48600      0    1.72e+00    0    1.20e+00
2006 10 29  1335    54037   48900      0    1.73e+00    0    1.23e+00
2006 10 29  1340    54037   49200      0    1.73e+00    0    1.23e+00
2006 10 29  1345    54037   49500      0    1.69e+00    0    1.18e+00
2006 10 29  1350    54037   49800      0    1.69e+00    0    1.19e+00
2006 10 29  1355    54037   50100      0    1.71e+00    0    1.20e+00
2006 10 29  1400    54037   50400      0    1.70e+00    0    1.20e+00
2006 10 29  1405    54037   50700      0    1.68e+00    0    1.20e+00
2006 10 29  1410    54037   51000      0    1.70e+00    0    1.21e+00
2006 10 29  1415    54037   51300      0    1.71e+00    0    1.20e+00
2006 10 29  1420    54037   51600      0    1.68e+00    0    1.18e+00
2006 10 29  1425    54037   51900      0    1.75e+00    0    1.23e+00
2006 10 29  1430    54037   52200      0    1.71e+00    0    1.20e+00
2006 10 29  1435    54037   52500      0    1.72e+00    0    1.21e+00
2006 10 29  1440    54037   52800      0    1.70e+00    0    1.20e+00
2006 10 29  1445    54037   53100      0    1.69e+00    0    1.20e+00
2006 10 29  1450    54037   53400      0    1.67e+00    0    1.17e+00
2006 10 29  1455    54037   53700      0    1.71e+00    0    1.20e+00
2006 10 29  1500    54037   54000      0    1.72e+00    0    1.22e+00
2006 10 29  1505    54037   54300      0    1.71e+00    0    1.19e+00
2006 10 29  1510    54037   54600      0    1.72e+00    0    1.21e+00
2006 10 29  1515    54037   54900      0    1.67e+00    0    1.16e+00
2006 10 29  1520    54037   55200      0    1.69e+00    0    1.19e+00
2006 10 29  1525    54037   55500      0    1.69e+00    0    1.18e+00
2006 10 29  1530    54037   55800      0    1.67e+00    0    1.19e+00
2006 10 29  1535    54037   56100      0    1.71e+00    0    1.20e+00
2006 10 29  1540    54037   56400      0    1.74e+00    0    1.22e+00
2006 10 29  1545    54037   56700      0    1.73e+00    0    1.22e+00
2006 10 29  1550    54037   57000      0    1.68e+00    0    1.18e+00
2006 10 29  1555    54037   57300      0    1.71e+00    0    1.23e+00
2006 10 29  1600    54037   57600      0    1.69e+00    0    1.18e+00
2006 10 29  1605    54037   57900      0    1.67e+00    0    1.17e+00
2006 10 29  1610    54037   58200      0    1.70e+00    0    1.19e+00
2006 10 29  1615    54037   58500      0    1.70e+00    0    1.18e+00
2006 10 29  1620    54037   58800      0    1.72e+00    0    1.21e+00
2006 10 29  1625    54037   59100      0    1.72e+00    0    1.21e+00
2006 10 29  1630    54037   59400      0    1.69e+00    0    1.17e+00
2006 10 29  1635    54037   59700      0    1.72e+00    0    1.19e+00
2006 10 29  1640    54037   60000      0    1.71e+00    0    1.20e+00
2006 10 29  1645    54037   60300      0    1.70e+00    0    1.19e+00
2006 10 29  1650    54037   60600      0    1.68e+00    0    1.19e+00
2006 10 29  1655    54037   60900      0    1.70e+00    0    1.19e+00
2006 10 29  1700    54037   61200      0    1.68e+00    0    1.17e+00
2006 10 29  1705    54037   61500      0    1.68e+00    0    1.18e+00
2006 10 29  1710    54037   61800      0    1.72e+00    0    1.21e+00
2006 10 29  1715    54037   62100      0    1.67e+00    0    1.18e+00
2006 10 29  1720    54037   62400      0    1.71e+00    0    1.20e+00
2006 10 29  1725    54037   62700      0    1.74e+00    0    1.23e+00
2006 10 29  1730    54037   63000      0    1.69e+00    0    1.18e+00
2006 10 29  1735    54037   63300      0    1.70e+00    0    1.21e+00
2006 10 29  1740    54037   63600      0    1.71e+00    0    1.20e+00
2006 10 29  1745    54037   63900      0    1.70e+00    0    1.18e+00
2006 10 29  1750    54037   64200      0    1.68e+00    0    1.17e+00
2006 10 29  1755    54037   64500      0    1.67e+00    0    1.19e+00
2006 10 29  1800    54037   64800      0    1.68e+00    0    1.17e+00
2006 10 29  1805    54037   65100      0    1.69e+00    0    1.20e+00
2006 10 29  1810    54037   65400      0    1.70e+00    0    1.18e+00
2006 10 29  1815    54037   65700      0    1.74e+00    0    1.22e+00
2006 10 29  1820    54037   66000      0    1.72e+00    0    1.21e+00
2006 10 29  1825    54037   66300      0    1.67e+00    0    1.15e+00
2006 10 29  1830    54037   66600      0    1.72e+00    0    1.21e+00
2006 10 29  1835    54037   66900      0    1.71e+00    0    1.18e+00
2006 10 29  1840    54037   67200      0    1.73e+00    0    1.20e+00
2006 10 29  1845    54037   67500      0    1.72e+00    0    1.22e+00
2006 10 29  1850    54037   67800      0    1.73e+00    0    1.21e+00
2006 10 29  1855    54037   68100      0    1.67e+00    0    1.18e+00
2006 10 29  1900    54037   68400      0    1.72e+00    0    1.21e+00
2006 10 29  1905    54037   68700      0    1.71e+00    0    1.19e+00
2006 10 29  1910    54037   69000      0    1.70e+00    0    1.19e+00
2006 10 29  1915    54037   69300      0    1.70e+00    0    1.19e+00
2006 10 29  1920    54037   69600      0    1.69e+00    0    1.18e+00
2006 10 29  1925    54037   69900      0    1.70e+00    0    1.18e+00
2006 10 29  1930    54037   70200      0    1.70e+00    0    1.18e+00
2006 10 29  1935    54037   70500      0    1.75e+00    0    1.23e+00
2006 10 29  1940    54037   70800      0    1.75e+00    0    1.23e+00
2006 10 29  1945    54037   71100      0    1.72e+00    0    1.20e+00
2006 10 29  1950    54037   71400      0    1.72e+00    0    1.20e+00
2006 10 29  1955    54037   71700      0    1.74e+00    0    1.22e+00
2006 10 29  2000    54037   72000      0    1.69e+00    0    1.18e+00
2006 10 29  2005    54037   72300      0    1.69e+00    0    1.18e+00
2006 10 29  2010    54037   72600      0    1.71e+00    0    1.20e+00
2006 10 29  2015    54037   72900      0    1.75e+00    0    1.23e+00
2006 10 29  2020    54037   73200      0    1.67e+00    0    1.17e+00
2006 10 29  2025    54037   73500      0    1.67e+00    0    1.17e+00
2006 10 29  2030    54037   73800      0    1.71e+00    0    1.19e+00
2006 10 29  2035    54037   74100      0    1.72e+00    0    1.22e+00
2006 10 29  2040    54037   74400      0    1.69e+00    0    1.19e+00
2006 10 29  2045    54037   74700      0    1.72e+00    0    1.21e+00
2006 10 29  2050    54037   75000      0    1.71e+00    0    1.19e+00
2006 10 29  2055    54037   75300      0    1.71e+00    0    1.21e+00
2006 10 29  2100    54037   75600      0    1.69e+00    0    1.19e+00
2006 10 29  2105    54037   75900      0    1.69e+00    0    1.18e+00
2006 10 29  2110    54037   76200      0    1.69e+00    0    1.18e+00
2006 10 29  2115    54037   76500      0    1.68e+00    0    1.18e+00
2006 10 29  2120    54037   76800      0    1.64e+00    0    1.15e+00
2006 10 29  2125    54037   77100      9   -1.00e+05    9   -1.00e+05
2006 10 29  2130    54037   77400      9   -1.00e+05    9   -1.00e+05
2006 10 29  2135    54037   77700      9   -1.00e+05    9   -1.00e+05
2006 10 29  2140    54037   78000      9   -1.00e+05    9   -1.00e+05
2006 10 29  2145    54037   78300      9   -1.00e+05    9   -1.00e+05
2006 10 29  2150    54037   78600      9   -1.00e+05    9   -1.00e+05
2006 10 29  2155    54037   78900      9   -1.00e+05    9   -1.00e+05
2006 10 29  2200    54037   79200      0    1.73e+00    0    1.22e+00
2006 10 29  2205    54037   79500      0    1.70e+00    0    1.19e+00
2006 10 29  2210    54037   79800      0    1.69e+00    0    1.16e+00
2006 10 29  2215    54037   80100      0    1.75e+00    0    1.23e+00
2006 10 29  2220    54037   80400      0    1.71e+00    0    1.20e+00
2006 10 29  2225    54037   80700      0    1.65e+00    0    1.15e+00
2006 10 29  2230    54037   81000      0    1.68e+00    0    1.19e+00
2006 10 29  2235    54037   81300      0    1.72e+00    0    1.21e+00
2006 10 29  2240    54037   81600      0    1.68e+00    0    1.17e+00
2006 10 29  2245    54037   81900      0    1.72e+00    0    1.21e+00
2006 10 29  2250    54037   82200      0    1.72e+00    0    1.22e+00
2006 10 29  2255    54037   82500      0    1.71e+00    0    1.21e+00
2006 10 29  2300    54037   82800      0    1.73e+00    0    1.21e+00
2006 10 29  2305    54037   83100      0    1.71e+00    0    1.21e+00
2006 10 29  2310    54037   83400      0    1.72e+00    0    1.20e+00
2006 10 29  2315    54037   83700      0    1.67e+00    0    1.16e+00
2006 10 29  2320    54037   84000      0    1.70e+00    0    1.19e+00
2006 10 29  2325    54037   84300      0    1.71e+00    0    1.20e+00
2006 10 29  2330    54037   84600      0    1.69e+00    0    1.19e+00
2006 10 29  2335    54037   84900      0    1.71e+00    0    1.21e+00
2006 10 29  2340    54037   85200      0    1.69e+00    0    1.19e+00
2006 10 29  2345    54037   85500      0    1.65e+00    0    1.16e+00
2006 10 29  2350    54037   85800      0    1.74e+00    0    1.21e+00
2006 10 29  2355    54037   86100      0    1.71e+00    0    1.19e+00
