:Data_list: 20061021_ace_sis_5m.txt
:Created: 2006 Oct 22 0011 UT
# Prepared by the U.S. Dept. of Commerce, NOAA, Space Environment Center.
# Please send comments and suggestions to SEC.Webmaster@noaa.gov 
# 
# Units: proton flux p/cs2-sec-ster
# Status(S): 0 = nominal data, 1 to 8 = bad data record, 9 = no data
# Missing data values: -1.00e+05
# Source: ACE Satellite - Solar Isotope Spectrometer
#
# 5-minute averaged Real-time Integral Flux of High-energy Solar Protons
# 
#                 Modified Seconds
# UT Date   Time   Julian  of the      ---- Integral Proton Flux ----
# YR MO DA  HHMM     Day     Day       S    > 10 MeV    S    > 30 MeV
#--------------------------------------------------------------------
2006 10 21  0000    54029       0      0    1.69e+00    0    1.19e+00
2006 10 21  0005    54029     300      0    1.67e+00    0    1.17e+00
2006 10 21  0010    54029     600      0    1.69e+00    0    1.20e+00
2006 10 21  0015    54029     900      0    1.65e+00    0    1.17e+00
2006 10 21  0020    54029    1200      0    1.69e+00    0    1.19e+00
2006 10 21  0025    54029    1500      0    1.67e+00    0    1.18e+00
2006 10 21  0030    54029    1800      0    1.65e+00    0    1.16e+00
2006 10 21  0035    54029    2100      0    1.66e+00    0    1.17e+00
2006 10 21  0040    54029    2400      0    1.68e+00    0    1.19e+00
2006 10 21  0045    54029    2700      0    1.63e+00    0    1.14e+00
2006 10 21  0050    54029    3000      0    1.64e+00    0    1.14e+00
2006 10 21  0055    54029    3300      0    1.65e+00    0    1.16e+00
2006 10 21  0100    54029    3600      0    1.66e+00    0    1.16e+00
2006 10 21  0105    54029    3900      0    1.64e+00    0    1.15e+00
2006 10 21  0110    54029    4200      0    1.66e+00    0    1.16e+00
2006 10 21  0115    54029    4500      0    1.61e+00    0    1.13e+00
2006 10 21  0120    54029    4800      0    1.64e+00    0    1.14e+00
2006 10 21  0125    54029    5100      0    1.64e+00    0    1.15e+00
2006 10 21  0130    54029    5400      0    1.64e+00    0    1.14e+00
2006 10 21  0135    54029    5700      0    1.67e+00    0    1.17e+00
2006 10 21  0140    54029    6000      0    1.65e+00    0    1.15e+00
2006 10 21  0145    54029    6300      0    1.64e+00    0    1.16e+00
2006 10 21  0150    54029    6600      0    1.66e+00    0    1.17e+00
2006 10 21  0155    54029    6900      0    1.65e+00    0    1.16e+00
2006 10 21  0200    54029    7200      0    1.68e+00    0    1.17e+00
2006 10 21  0205    54029    7500      0    1.65e+00    0    1.15e+00
2006 10 21  0210    54029    7800      0    1.65e+00    0    1.15e+00
2006 10 21  0215    54029    8100      0    1.67e+00    0    1.18e+00
2006 10 21  0220    54029    8400      0    1.64e+00    0    1.14e+00
2006 10 21  0225    54029    8700      0    1.62e+00    0    1.14e+00
2006 10 21  0230    54029    9000      0    1.64e+00    0    1.15e+00
2006 10 21  0235    54029    9300      0    1.64e+00    0    1.15e+00
2006 10 21  0240    54029    9600      0    1.64e+00    0    1.15e+00
2006 10 21  0245    54029    9900      0    1.63e+00    0    1.15e+00
2006 10 21  0250    54029   10200      0    1.64e+00    0    1.15e+00
2006 10 21  0255    54029   10500      0    1.67e+00    0    1.17e+00
2006 10 21  0300    54029   10800      0    1.68e+00    0    1.18e+00
2006 10 21  0305    54029   11100      9   -1.00e+05    9   -1.00e+05
2006 10 21  0310    54029   11400      9   -1.00e+05    9   -1.00e+05
2006 10 21  0315    54029   11700      9   -1.00e+05    9   -1.00e+05
2006 10 21  0320    54029   12000      9   -1.00e+05    9   -1.00e+05
2006 10 21  0325    54029   12300      9   -1.00e+05    9   -1.00e+05
2006 10 21  0330    54029   12600      9   -1.00e+05    9   -1.00e+05
2006 10 21  0335    54029   12900      9   -1.00e+05    9   -1.00e+05
2006 10 21  0340    54029   13200      9   -1.00e+05    9   -1.00e+05
2006 10 21  0345    54029   13500      9   -1.00e+05    9   -1.00e+05
2006 10 21  0350    54029   13800      9   -1.00e+05    9   -1.00e+05
2006 10 21  0355    54029   14100      9   -1.00e+05    9   -1.00e+05
2006 10 21  0400    54029   14400      9   -1.00e+05    9   -1.00e+05
2006 10 21  0405    54029   14700      0    1.66e+00    0    1.17e+00
2006 10 21  0410    54029   15000      9   -1.00e+05    9   -1.00e+05
2006 10 21  0415    54029   15300      9   -1.00e+05    9   -1.00e+05
2006 10 21  0420    54029   15600      0    1.64e+00    0    1.15e+00
2006 10 21  0425    54029   15900      0    1.66e+00    0    1.16e+00
2006 10 21  0430    54029   16200      0    1.65e+00    0    1.16e+00
2006 10 21  0435    54029   16500      0    1.65e+00    0    1.17e+00
2006 10 21  0440    54029   16800      0    1.65e+00    0    1.16e+00
2006 10 21  0445    54029   17100      0    1.68e+00    0    1.17e+00
2006 10 21  0450    54029   17400      0    1.64e+00    0    1.14e+00
2006 10 21  0455    54029   17700      0    1.66e+00    0    1.16e+00
2006 10 21  0500    54029   18000      0    1.68e+00    0    1.18e+00
2006 10 21  0505    54029   18300      0    1.62e+00    0    1.13e+00
2006 10 21  0510    54029   18600      0    1.65e+00    0    1.16e+00
2006 10 21  0515    54029   18900      0    1.66e+00    0    1.16e+00
2006 10 21  0520    54029   19200      0    1.68e+00    0    1.19e+00
2006 10 21  0525    54029   19500      0    1.65e+00    0    1.16e+00
2006 10 21  0530    54029   19800      0    1.64e+00    0    1.14e+00
2006 10 21  0535    54029   20100      0    1.64e+00    0    1.15e+00
2006 10 21  0540    54029   20400      0    1.64e+00    0    1.14e+00
2006 10 21  0545    54029   20700      0    1.62e+00    0    1.15e+00
2006 10 21  0550    54029   21000      0    1.68e+00    0    1.17e+00
2006 10 21  0555    54029   21300      0    1.62e+00    0    1.13e+00
2006 10 21  0600    54029   21600      0    1.67e+00    0    1.17e+00
2006 10 21  0605    54029   21900      0    1.60e+00    0    1.12e+00
2006 10 21  0610    54029   22200      0    1.64e+00    0    1.15e+00
2006 10 21  0615    54029   22500      0    1.67e+00    0    1.17e+00
2006 10 21  0620    54029   22800      0    1.66e+00    0    1.16e+00
2006 10 21  0625    54029   23100      0    1.66e+00    0    1.16e+00
2006 10 21  0630    54029   23400      0    1.63e+00    0    1.13e+00
2006 10 21  0635    54029   23700      0    1.64e+00    0    1.15e+00
2006 10 21  0640    54029   24000      0    1.67e+00    0    1.18e+00
2006 10 21  0645    54029   24300      0    1.66e+00    0    1.17e+00
2006 10 21  0650    54029   24600      0    1.63e+00    0    1.15e+00
2006 10 21  0655    54029   24900      0    1.64e+00    0    1.15e+00
2006 10 21  0700    54029   25200      0    1.61e+00    0    1.13e+00
2006 10 21  0705    54029   25500      0    1.68e+00    0    1.17e+00
2006 10 21  0710    54029   25800      0    1.65e+00    0    1.15e+00
2006 10 21  0715    54029   26100      0    1.68e+00    0    1.19e+00
2006 10 21  0720    54029   26400      0    1.68e+00    0    1.17e+00
2006 10 21  0725    54029   26700      0    1.66e+00    0    1.17e+00
2006 10 21  0730    54029   27000      0    1.62e+00    0    1.13e+00
2006 10 21  0735    54029   27300      0    1.66e+00    0    1.16e+00
2006 10 21  0740    54029   27600      0    1.67e+00    0    1.17e+00
2006 10 21  0745    54029   27900      0    1.63e+00    0    1.15e+00
2006 10 21  0750    54029   28200      0    1.64e+00    0    1.15e+00
2006 10 21  0755    54029   28500      0    1.64e+00    0    1.14e+00
2006 10 21  0800    54029   28800      0    1.61e+00    0    1.12e+00
2006 10 21  0805    54029   29100      0    1.61e+00    0    1.12e+00
2006 10 21  0810    54029   29400      0    1.65e+00    0    1.16e+00
2006 10 21  0815    54029   29700      0    1.70e+00    0    1.20e+00
2006 10 21  0820    54029   30000      0    1.67e+00    0    1.18e+00
2006 10 21  0825    54029   30300      0    1.61e+00    0    1.13e+00
2006 10 21  0830    54029   30600      0    1.64e+00    0    1.16e+00
2006 10 21  0835    54029   30900      0    1.66e+00    0    1.16e+00
2006 10 21  0840    54029   31200      0    1.62e+00    0    1.13e+00
2006 10 21  0845    54029   31500      0    1.65e+00    0    1.16e+00
2006 10 21  0850    54029   31800      0    1.65e+00    0    1.17e+00
2006 10 21  0855    54029   32100      0    1.65e+00    0    1.15e+00
2006 10 21  0900    54029   32400      0    1.64e+00    0    1.14e+00
2006 10 21  0905    54029   32700      0    1.66e+00    0    1.16e+00
2006 10 21  0910    54029   33000      0    1.64e+00    0    1.16e+00
2006 10 21  0915    54029   33300      0    1.63e+00    0    1.14e+00
2006 10 21  0920    54029   33600      0    1.63e+00    0    1.15e+00
2006 10 21  0925    54029   33900      0    1.61e+00    0    1.13e+00
2006 10 21  0930    54029   34200      0    1.64e+00    0    1.15e+00
2006 10 21  0935    54029   34500      0    1.64e+00    0    1.13e+00
2006 10 21  0940    54029   34800      0    1.64e+00    0    1.14e+00
2006 10 21  0945    54029   35100      0    1.63e+00    0    1.15e+00
2006 10 21  0950    54029   35400      0    1.63e+00    0    1.15e+00
2006 10 21  0955    54029   35700      0    1.66e+00    0    1.16e+00
2006 10 21  1000    54029   36000      0    1.57e+00    0    1.11e+00
2006 10 21  1005    54029   36300      0    1.65e+00    0    1.15e+00
2006 10 21  1010    54029   36600      0    1.65e+00    0    1.16e+00
2006 10 21  1015    54029   36900      0    1.62e+00    0    1.13e+00
2006 10 21  1020    54029   37200      0    1.65e+00    0    1.16e+00
2006 10 21  1025    54029   37500      0    1.66e+00    0    1.17e+00
2006 10 21  1030    54029   37800      0    1.65e+00    0    1.17e+00
2006 10 21  1035    54029   38100      0    1.65e+00    0    1.17e+00
2006 10 21  1040    54029   38400      0    1.62e+00    0    1.12e+00
2006 10 21  1045    54029   38700      0    1.63e+00    0    1.15e+00
2006 10 21  1050    54029   39000      0    1.66e+00    0    1.17e+00
2006 10 21  1055    54029   39300      0    1.68e+00    0    1.18e+00
2006 10 21  1100    54029   39600      0    1.65e+00    0    1.16e+00
2006 10 21  1105    54029   39900      0    1.63e+00    0    1.14e+00
2006 10 21  1110    54029   40200      0    1.65e+00    0    1.16e+00
2006 10 21  1115    54029   40500      0    1.64e+00    0    1.17e+00
2006 10 21  1120    54029   40800      0    1.64e+00    0    1.15e+00
2006 10 21  1125    54029   41100      0    1.59e+00    0    1.12e+00
2006 10 21  1130    54029   41400      0    1.67e+00    0    1.18e+00
2006 10 21  1135    54029   41700      0    1.67e+00    0    1.17e+00
2006 10 21  1140    54029   42000      0    1.67e+00    0    1.16e+00
2006 10 21  1145    54029   42300      0    1.69e+00    0    1.18e+00
2006 10 21  1150    54029   42600      0    1.64e+00    0    1.15e+00
2006 10 21  1155    54029   42900      0    1.65e+00    0    1.16e+00
2006 10 21  1200    54029   43200      0    1.64e+00    0    1.14e+00
2006 10 21  1205    54029   43500      0    1.64e+00    0    1.15e+00
2006 10 21  1210    54029   43800      0    1.63e+00    0    1.15e+00
2006 10 21  1215    54029   44100      0    1.65e+00    0    1.16e+00
2006 10 21  1220    54029   44400      0    1.66e+00    0    1.16e+00
2006 10 21  1225    54029   44700      0    1.68e+00    0    1.17e+00
2006 10 21  1230    54029   45000      0    1.64e+00    0    1.16e+00
2006 10 21  1235    54029   45300      0    1.64e+00    0    1.15e+00
2006 10 21  1240    54029   45600      0    1.66e+00    0    1.16e+00
2006 10 21  1245    54029   45900      0    1.65e+00    0    1.15e+00
2006 10 21  1250    54029   46200      0    1.65e+00    0    1.16e+00
2006 10 21  1255    54029   46500      0    1.66e+00    0    1.18e+00
2006 10 21  1300    54029   46800      0    1.67e+00    0    1.16e+00
2006 10 21  1305    54029   47100      0    1.69e+00    0    1.18e+00
2006 10 21  1310    54029   47400      0    1.62e+00    0    1.15e+00
2006 10 21  1315    54029   47700      0    1.65e+00    0    1.17e+00
2006 10 21  1320    54029   48000      0    1.69e+00    0    1.18e+00
2006 10 21  1325    54029   48300      0    1.70e+00    0    1.19e+00
2006 10 21  1330    54029   48600      0    1.65e+00    0    1.17e+00
2006 10 21  1335    54029   48900      0    1.69e+00    0    1.20e+00
2006 10 21  1340    54029   49200      0    1.67e+00    0    1.16e+00
2006 10 21  1345    54029   49500      0    1.68e+00    0    1.19e+00
2006 10 21  1350    54029   49800      0    1.64e+00    0    1.16e+00
2006 10 21  1355    54029   50100      0    1.68e+00    0    1.17e+00
2006 10 21  1400    54029   50400      0    1.65e+00    0    1.16e+00
2006 10 21  1405    54029   50700      0    1.66e+00    0    1.16e+00
2006 10 21  1410    54029   51000      0    1.66e+00    0    1.16e+00
2006 10 21  1415    54029   51300      0    1.63e+00    0    1.15e+00
2006 10 21  1420    54029   51600      0    1.64e+00    0    1.15e+00
2006 10 21  1425    54029   51900      0    1.62e+00    0    1.13e+00
2006 10 21  1430    54029   52200      0    1.65e+00    0    1.15e+00
2006 10 21  1435    54029   52500      0    1.66e+00    0    1.16e+00
2006 10 21  1440    54029   52800      0    1.67e+00    0    1.17e+00
2006 10 21  1445    54029   53100      0    1.63e+00    0    1.16e+00
2006 10 21  1450    54029   53400      0    1.67e+00    0    1.18e+00
2006 10 21  1455    54029   53700      0    1.70e+00    0    1.18e+00
2006 10 21  1500    54029   54000      0    1.61e+00    0    1.11e+00
2006 10 21  1505    54029   54300      0    1.62e+00    0    1.13e+00
2006 10 21  1510    54029   54600      0    1.61e+00    0    1.13e+00
2006 10 21  1515    54029   54900      0    1.62e+00    0    1.14e+00
2006 10 21  1520    54029   55200      0    1.62e+00    0    1.13e+00
2006 10 21  1525    54029   55500      0    1.61e+00    0    1.13e+00
2006 10 21  1530    54029   55800      0    1.61e+00    0    1.13e+00
2006 10 21  1535    54029   56100      0    1.73e+00    0    1.21e+00
2006 10 21  1540    54029   56400      0    1.68e+00    0    1.18e+00
2006 10 21  1545    54029   56700      0    1.68e+00    0    1.17e+00
2006 10 21  1550    54029   57000      0    1.67e+00    0    1.18e+00
2006 10 21  1555    54029   57300      0    1.68e+00    0    1.20e+00
2006 10 21  1600    54029   57600      0    1.66e+00    0    1.16e+00
2006 10 21  1605    54029   57900      0    1.67e+00    0    1.17e+00
2006 10 21  1610    54029   58200      0    1.59e+00    0    1.10e+00
2006 10 21  1615    54029   58500      0    1.68e+00    0    1.18e+00
2006 10 21  1620    54029   58800      0    1.68e+00    0    1.18e+00
2006 10 21  1625    54029   59100      0    1.64e+00    0    1.17e+00
2006 10 21  1630    54029   59400      0    1.53e+00    0    1.07e+00
2006 10 21  1635    54029   59700      0    1.62e+00    0    1.15e+00
2006 10 21  1640    54029   60000      0    1.64e+00    0    1.15e+00
2006 10 21  1645    54029   60300      0    1.62e+00    0    1.13e+00
2006 10 21  1650    54029   60600      0    1.65e+00    0    1.16e+00
2006 10 21  1655    54029   60900      0    1.61e+00    0    1.13e+00
2006 10 21  1700    54029   61200      0    1.56e+00    0    1.10e+00
2006 10 21  1705    54029   61500      0    1.68e+00    0    1.18e+00
2006 10 21  1710    54029   61800      0    1.68e+00    0    1.17e+00
2006 10 21  1715    54029   62100      0    1.64e+00    0    1.15e+00
2006 10 21  1720    54029   62400      0    1.65e+00    0    1.17e+00
2006 10 21  1725    54029   62700      0    1.68e+00    0    1.18e+00
2006 10 21  1730    54029   63000      0    1.70e+00    0    1.19e+00
2006 10 21  1735    54029   63300      0    1.69e+00    0    1.18e+00
2006 10 21  1740    54029   63600      0    1.66e+00    0    1.16e+00
2006 10 21  1745    54029   63900      0    1.68e+00    0    1.17e+00
2006 10 21  1750    54029   64200      0    1.65e+00    0    1.14e+00
2006 10 21  1755    54029   64500      0    1.64e+00    0    1.15e+00
2006 10 21  1800    54029   64800      0    1.68e+00    0    1.17e+00
2006 10 21  1805    54029   65100      0    1.68e+00    0    1.17e+00
2006 10 21  1810    54029   65400      0    1.67e+00    0    1.16e+00
2006 10 21  1815    54029   65700      0    1.70e+00    0    1.19e+00
2006 10 21  1820    54029   66000      0    1.69e+00    0    1.19e+00
2006 10 21  1825    54029   66300      0    1.70e+00    0    1.19e+00
2006 10 21  1830    54029   66600      0    1.71e+00    0    1.18e+00
2006 10 21  1835    54029   66900      0    1.70e+00    0    1.19e+00
2006 10 21  1840    54029   67200      0    1.71e+00    0    1.19e+00
2006 10 21  1845    54029   67500      0    1.66e+00    0    1.18e+00
2006 10 21  1850    54029   67800      0    1.63e+00    0    1.14e+00
2006 10 21  1855    54029   68100      0    1.62e+00    0    1.14e+00
2006 10 21  1900    54029   68400      0    1.69e+00    0    1.17e+00
2006 10 21  1905    54029   68700      0    1.67e+00    0    1.18e+00
2006 10 21  1910    54029   69000      0    1.71e+00    0    1.19e+00
2006 10 21  1915    54029   69300      0    1.65e+00    0    1.17e+00
2006 10 21  1920    54029   69600      0    1.67e+00    0    1.17e+00
2006 10 21  1925    54029   69900      0    1.69e+00    0    1.19e+00
2006 10 21  1930    54029   70200      0    1.67e+00    0    1.19e+00
2006 10 21  1935    54029   70500      0    1.67e+00    0    1.17e+00
2006 10 21  1940    54029   70800      0    1.71e+00    0    1.20e+00
2006 10 21  1945    54029   71100      0    1.66e+00    0    1.17e+00
2006 10 21  1950    54029   71400      0    1.66e+00    0    1.16e+00
2006 10 21  1955    54029   71700      0    1.63e+00    0    1.14e+00
2006 10 21  2000    54029   72000      0    1.69e+00    0    1.19e+00
2006 10 21  2005    54029   72300      0    1.65e+00    0    1.17e+00
2006 10 21  2010    54029   72600      0    1.68e+00    0    1.17e+00
2006 10 21  2015    54029   72900      0    1.67e+00    0    1.18e+00
2006 10 21  2020    54029   73200      0    1.68e+00    0    1.18e+00
2006 10 21  2025    54029   73500      0    1.68e+00    0    1.19e+00
2006 10 21  2030    54029   73800      0    1.67e+00    0    1.19e+00
2006 10 21  2035    54029   74100      0    1.67e+00    0    1.16e+00
2006 10 21  2040    54029   74400      0    1.68e+00    0    1.19e+00
2006 10 21  2045    54029   74700      0    1.66e+00    0    1.17e+00
2006 10 21  2050    54029   75000      0    1.65e+00    0    1.15e+00
2006 10 21  2055    54029   75300      0    1.67e+00    0    1.16e+00
2006 10 21  2100    54029   75600      0    1.69e+00    0    1.18e+00
2006 10 21  2105    54029   75900      0    1.69e+00    0    1.20e+00
2006 10 21  2110    54029   76200      0    1.66e+00    0    1.16e+00
2006 10 21  2115    54029   76500      0    1.67e+00    0    1.18e+00
2006 10 21  2120    54029   76800      0    1.70e+00    0    1.19e+00
2006 10 21  2125    54029   77100      9   -1.00e+05    9   -1.00e+05
2006 10 21  2130    54029   77400      9   -1.00e+05    9   -1.00e+05
2006 10 21  2135    54029   77700      9   -1.00e+05    9   -1.00e+05
2006 10 21  2140    54029   78000      9   -1.00e+05    9   -1.00e+05
2006 10 21  2145    54029   78300      9   -1.00e+05    9   -1.00e+05
2006 10 21  2150    54029   78600      9   -1.00e+05    9   -1.00e+05
2006 10 21  2155    54029   78900      9   -1.00e+05    9   -1.00e+05
2006 10 21  2200    54029   79200      9   -1.00e+05    9   -1.00e+05
2006 10 21  2205    54029   79500      9   -1.00e+05    9   -1.00e+05
2006 10 21  2210    54029   79800      0    1.65e+00    0    1.16e+00
2006 10 21  2215    54029   80100      0    1.67e+00    0    1.17e+00
2006 10 21  2220    54029   80400      0    1.65e+00    0    1.16e+00
2006 10 21  2225    54029   80700      0    1.70e+00    0    1.19e+00
2006 10 21  2230    54029   81000      0    1.58e+00    0    1.10e+00
2006 10 21  2235    54029   81300      0    1.68e+00    0    1.20e+00
2006 10 21  2240    54029   81600      0    1.66e+00    0    1.17e+00
2006 10 21  2245    54029   81900      0    1.67e+00    0    1.17e+00
2006 10 21  2250    54029   82200      0    1.68e+00    0    1.18e+00
2006 10 21  2255    54029   82500      0    1.67e+00    0    1.18e+00
2006 10 21  2300    54029   82800      0    1.68e+00    0    1.17e+00
2006 10 21  2305    54029   83100      0    1.68e+00    0    1.17e+00
2006 10 21  2310    54029   83400      0    1.65e+00    0    1.16e+00
2006 10 21  2315    54029   83700      0    1.66e+00    0    1.17e+00
2006 10 21  2320    54029   84000      0    1.66e+00    0    1.17e+00
2006 10 21  2325    54029   84300      0    1.68e+00    0    1.20e+00
2006 10 21  2330    54029   84600      0    1.67e+00    0    1.17e+00
2006 10 21  2335    54029   84900      0    1.69e+00    0    1.19e+00
2006 10 21  2340    54029   85200      0    1.72e+00    0    1.21e+00
2006 10 21  2345    54029   85500      0    1.65e+00    0    1.16e+00
2006 10 21  2350    54029   85800      0    1.65e+00    0    1.16e+00
2006 10 21  2355    54029   86100      0    1.70e+00    0    1.20e+00
