:Data_list: 20060903_ace_sis_5m.txt
:Created: 2006 Sep 04 0011 UT
# Prepared by the U.S. Dept. of Commerce, NOAA, Space Environment Center.
# Please send comments and suggestions to SEC.Webmaster@noaa.gov 
# 
# Units: proton flux p/cs2-sec-ster
# Status(S): 0 = nominal data, 1 to 8 = bad data record, 9 = no data
# Missing data values: -1.00e+05
# Source: ACE Satellite - Solar Isotope Spectrometer
#
# 5-minute averaged Real-time Integral Flux of High-energy Solar Protons
# 
#                 Modified Seconds
# UT Date   Time   Julian  of the      ---- Integral Proton Flux ----
# YR MO DA  HHMM     Day     Day       S    > 10 MeV    S    > 30 MeV
#--------------------------------------------------------------------
2006 09 03  0000    53981       0      0    1.55e+00    0    1.08e+00
2006 09 03  0005    53981     300      0    1.58e+00    0    1.11e+00
2006 09 03  0010    53981     600      0    1.58e+00    0    1.11e+00
2006 09 03  0015    53981     900      0    1.57e+00    0    1.10e+00
2006 09 03  0020    53981    1200      0    1.55e+00    0    1.09e+00
2006 09 03  0025    53981    1500      0    1.58e+00    0    1.10e+00
2006 09 03  0030    53981    1800      0    1.56e+00    0    1.09e+00
2006 09 03  0035    53981    2100      0    1.57e+00    0    1.10e+00
2006 09 03  0040    53981    2400      0    1.58e+00    0    1.11e+00
2006 09 03  0045    53981    2700      0    1.54e+00    0    1.09e+00
2006 09 03  0050    53981    3000      0    1.58e+00    0    1.10e+00
2006 09 03  0055    53981    3300      0    1.56e+00    0    1.09e+00
2006 09 03  0100    53981    3600      0    1.58e+00    0    1.10e+00
2006 09 03  0105    53981    3900      0    1.57e+00    0    1.09e+00
2006 09 03  0110    53981    4200      0    1.57e+00    0    1.10e+00
2006 09 03  0115    53981    4500      0    1.58e+00    0    1.10e+00
2006 09 03  0120    53981    4800      0    1.49e+00    0    1.04e+00
2006 09 03  0125    53981    5100      0    1.60e+00    0    1.12e+00
2006 09 03  0130    53981    5400      0    1.55e+00    0    1.09e+00
2006 09 03  0135    53981    5700      0    1.60e+00    0    1.12e+00
2006 09 03  0140    53981    6000      0    1.58e+00    0    1.11e+00
2006 09 03  0145    53981    6300      0    1.58e+00    0    1.11e+00
2006 09 03  0150    53981    6600      0    1.55e+00    0    1.09e+00
2006 09 03  0155    53981    6900      0    1.53e+00    0    1.08e+00
2006 09 03  0200    53981    7200      0    1.58e+00    0    1.10e+00
2006 09 03  0205    53981    7500      0    1.58e+00    0    1.12e+00
2006 09 03  0210    53981    7800      0    1.57e+00    0    1.10e+00
2006 09 03  0215    53981    8100      0    1.56e+00    0    1.08e+00
2006 09 03  0220    53981    8400      0    1.57e+00    0    1.09e+00
2006 09 03  0225    53981    8700      0    1.58e+00    0    1.11e+00
2006 09 03  0230    53981    9000      0    1.54e+00    0    1.08e+00
2006 09 03  0235    53981    9300      0    1.57e+00    0    1.09e+00
2006 09 03  0240    53981    9600      0    1.57e+00    0    1.09e+00
2006 09 03  0245    53981    9900      0    1.54e+00    0    1.08e+00
2006 09 03  0250    53981   10200      0    1.61e+00    0    1.14e+00
2006 09 03  0255    53981   10500      0    1.58e+00    0    1.11e+00
2006 09 03  0300    53981   10800      0    1.57e+00    0    1.10e+00
2006 09 03  0305    53981   11100      0    1.57e+00    0    1.11e+00
2006 09 03  0310    53981   11400      0    1.57e+00    0    1.11e+00
2006 09 03  0315    53981   11700      0    1.56e+00    0    1.09e+00
2006 09 03  0320    53981   12000      0    1.57e+00    0    1.10e+00
2006 09 03  0325    53981   12300      0    1.56e+00    0    1.09e+00
2006 09 03  0330    53981   12600      0    1.59e+00    0    1.10e+00
2006 09 03  0335    53981   12900      0    1.57e+00    0    1.11e+00
2006 09 03  0340    53981   13200      0    1.58e+00    0    1.12e+00
2006 09 03  0345    53981   13500      0    1.55e+00    0    1.09e+00
2006 09 03  0350    53981   13800      0    1.59e+00    0    1.12e+00
2006 09 03  0355    53981   14100      0    1.60e+00    0    1.13e+00
2006 09 03  0400    53981   14400      0    1.54e+00    0    1.08e+00
2006 09 03  0405    53981   14700      0    1.57e+00    0    1.11e+00
2006 09 03  0410    53981   15000      0    1.61e+00    0    1.11e+00
2006 09 03  0415    53981   15300      0    1.54e+00    0    1.08e+00
2006 09 03  0420    53981   15600      0    1.58e+00    0    1.10e+00
2006 09 03  0425    53981   15900      0    1.59e+00    0    1.11e+00
2006 09 03  0430    53981   16200      0    1.57e+00    0    1.10e+00
2006 09 03  0435    53981   16500      0    1.57e+00    0    1.09e+00
2006 09 03  0440    53981   16800      0    1.57e+00    0    1.11e+00
2006 09 03  0445    53981   17100      0    1.53e+00    0    1.07e+00
2006 09 03  0450    53981   17400      0    1.59e+00    0    1.12e+00
2006 09 03  0455    53981   17700      0    1.57e+00    0    1.10e+00
2006 09 03  0500    53981   18000      0    1.56e+00    0    1.08e+00
2006 09 03  0505    53981   18300      0    1.56e+00    0    1.09e+00
2006 09 03  0510    53981   18600      0    1.59e+00    0    1.12e+00
2006 09 03  0515    53981   18900      0    1.58e+00    0    1.10e+00
2006 09 03  0520    53981   19200      0    1.55e+00    0    1.09e+00
2006 09 03  0525    53981   19500      0    1.61e+00    0    1.13e+00
2006 09 03  0530    53981   19800      0    1.55e+00    0    1.08e+00
2006 09 03  0535    53981   20100      0    1.58e+00    0    1.11e+00
2006 09 03  0540    53981   20400      0    1.55e+00    0    1.09e+00
2006 09 03  0545    53981   20700      0    1.59e+00    0    1.12e+00
2006 09 03  0550    53981   21000      0    1.57e+00    0    1.11e+00
2006 09 03  0555    53981   21300      0    1.58e+00    0    1.11e+00
2006 09 03  0600    53981   21600      0    1.59e+00    0    1.10e+00
2006 09 03  0605    53981   21900      0    1.57e+00    0    1.08e+00
2006 09 03  0610    53981   22200      0    1.57e+00    0    1.09e+00
2006 09 03  0615    53981   22500      0    1.56e+00    0    1.10e+00
2006 09 03  0620    53981   22800      0    1.56e+00    0    1.08e+00
2006 09 03  0625    53981   23100      0    1.57e+00    0    1.10e+00
2006 09 03  0630    53981   23400      0    1.54e+00    0    1.08e+00
2006 09 03  0635    53981   23700      0    1.57e+00    0    1.10e+00
2006 09 03  0640    53981   24000      0    1.56e+00    0    1.09e+00
2006 09 03  0645    53981   24300      0    1.53e+00    0    1.06e+00
2006 09 03  0650    53981   24600      0    1.60e+00    0    1.13e+00
2006 09 03  0655    53981   24900      0    1.58e+00    0    1.11e+00
2006 09 03  0700    53981   25200      0    1.59e+00    0    1.11e+00
2006 09 03  0705    53981   25500      0    1.53e+00    0    1.07e+00
2006 09 03  0710    53981   25800      0    1.58e+00    0    1.12e+00
2006 09 03  0715    53981   26100      0    1.57e+00    0    1.10e+00
2006 09 03  0720    53981   26400      0    1.59e+00    0    1.11e+00
2006 09 03  0725    53981   26700      0    1.56e+00    0    1.10e+00
2006 09 03  0730    53981   27000      0    1.56e+00    0    1.09e+00
2006 09 03  0735    53981   27300      0    1.54e+00    0    1.08e+00
2006 09 03  0740    53981   27600      0    1.58e+00    0    1.10e+00
2006 09 03  0745    53981   27900      0    1.57e+00    0    1.09e+00
2006 09 03  0750    53981   28200      0    1.52e+00    0    1.06e+00
2006 09 03  0755    53981   28500      0    1.55e+00    0    1.09e+00
2006 09 03  0800    53981   28800      0    1.60e+00    0    1.13e+00
2006 09 03  0805    53981   29100      0    1.55e+00    0    1.07e+00
2006 09 03  0810    53981   29400      0    1.56e+00    0    1.09e+00
2006 09 03  0815    53981   29700      0    1.60e+00    0    1.12e+00
2006 09 03  0820    53981   30000      0    1.55e+00    0    1.09e+00
2006 09 03  0825    53981   30300      0    1.58e+00    0    1.09e+00
2006 09 03  0830    53981   30600      0    1.59e+00    0    1.12e+00
2006 09 03  0835    53981   30900      0    1.59e+00    0    1.11e+00
2006 09 03  0840    53981   31200      0    1.58e+00    0    1.11e+00
2006 09 03  0845    53981   31500      0    1.59e+00    0    1.10e+00
2006 09 03  0850    53981   31800      0    1.56e+00    0    1.09e+00
2006 09 03  0855    53981   32100      0    1.58e+00    0    1.11e+00
2006 09 03  0900    53981   32400      0    1.58e+00    0    1.10e+00
2006 09 03  0905    53981   32700      0    1.62e+00    0    1.13e+00
2006 09 03  0910    53981   33000      0    1.60e+00    0    1.11e+00
2006 09 03  0915    53981   33300      0    1.58e+00    0    1.10e+00
2006 09 03  0920    53981   33600      0    1.57e+00    0    1.10e+00
2006 09 03  0925    53981   33900      0    1.55e+00    0    1.09e+00
2006 09 03  0930    53981   34200      0    1.59e+00    0    1.11e+00
2006 09 03  0935    53981   34500      0    1.55e+00    0    1.10e+00
2006 09 03  0940    53981   34800      0    1.58e+00    0    1.12e+00
2006 09 03  0945    53981   35100      0    1.56e+00    0    1.09e+00
2006 09 03  0950    53981   35400      0    1.57e+00    0    1.10e+00
2006 09 03  0955    53981   35700      0    1.58e+00    0    1.11e+00
2006 09 03  1000    53981   36000      0    1.57e+00    0    1.09e+00
2006 09 03  1005    53981   36300      0    1.53e+00    0    1.07e+00
2006 09 03  1010    53981   36600      0    1.56e+00    0    1.09e+00
2006 09 03  1015    53981   36900      0    1.57e+00    0    1.11e+00
2006 09 03  1020    53981   37200      0    1.57e+00    0    1.09e+00
2006 09 03  1025    53981   37500      0    1.54e+00    0    1.09e+00
2006 09 03  1030    53981   37800      0    1.55e+00    0    1.09e+00
2006 09 03  1035    53981   38100      0    1.54e+00    0    1.08e+00
2006 09 03  1040    53981   38400      0    1.55e+00    0    1.09e+00
2006 09 03  1045    53981   38700      0    1.56e+00    0    1.09e+00
2006 09 03  1050    53981   39000      0    1.56e+00    0    1.10e+00
2006 09 03  1055    53981   39300      0    1.54e+00    0    1.07e+00
2006 09 03  1100    53981   39600      0    1.60e+00    0    1.12e+00
2006 09 03  1105    53981   39900      0    1.60e+00    0    1.12e+00
2006 09 03  1110    53981   40200      0    1.57e+00    0    1.10e+00
2006 09 03  1115    53981   40500      0    1.54e+00    0    1.07e+00
2006 09 03  1120    53981   40800      0    1.60e+00    0    1.12e+00
2006 09 03  1125    53981   41100      0    1.55e+00    0    1.08e+00
2006 09 03  1130    53981   41400      0    1.57e+00    0    1.12e+00
2006 09 03  1135    53981   41700      0    1.54e+00    0    1.09e+00
2006 09 03  1140    53981   42000      0    1.59e+00    0    1.12e+00
2006 09 03  1145    53981   42300      0    1.56e+00    0    1.09e+00
2006 09 03  1150    53981   42600      0    1.56e+00    0    1.10e+00
2006 09 03  1155    53981   42900      0    1.58e+00    0    1.11e+00
2006 09 03  1200    53981   43200      0    1.56e+00    0    1.08e+00
2006 09 03  1205    53981   43500      0    1.57e+00    0    1.11e+00
2006 09 03  1210    53981   43800      0    1.55e+00    0    1.09e+00
2006 09 03  1215    53981   44100      0    1.58e+00    0    1.11e+00
2006 09 03  1220    53981   44400      0    1.61e+00    0    1.14e+00
2006 09 03  1225    53981   44700      0    1.55e+00    0    1.09e+00
2006 09 03  1230    53981   45000      0    1.57e+00    0    1.10e+00
2006 09 03  1235    53981   45300      0    1.57e+00    0    1.09e+00
2006 09 03  1240    53981   45600      0    1.60e+00    0    1.12e+00
2006 09 03  1245    53981   45900      0    1.59e+00    0    1.11e+00
2006 09 03  1250    53981   46200      0    1.59e+00    0    1.10e+00
2006 09 03  1255    53981   46500      0    1.57e+00    0    1.10e+00
2006 09 03  1300    53981   46800      0    1.57e+00    0    1.10e+00
2006 09 03  1305    53981   47100      0    1.56e+00    0    1.10e+00
2006 09 03  1310    53981   47400      0    1.57e+00    0    1.10e+00
2006 09 03  1315    53981   47700      0    1.58e+00    0    1.11e+00
2006 09 03  1320    53981   48000      0    1.60e+00    0    1.13e+00
2006 09 03  1325    53981   48300      0    1.55e+00    0    1.09e+00
2006 09 03  1330    53981   48600      0    1.55e+00    0    1.08e+00
2006 09 03  1335    53981   48900      0    1.55e+00    0    1.08e+00
2006 09 03  1340    53981   49200      0    1.57e+00    0    1.11e+00
2006 09 03  1345    53981   49500      0    1.59e+00    0    1.12e+00
2006 09 03  1350    53981   49800      0    1.56e+00    0    1.09e+00
2006 09 03  1355    53981   50100      0    1.55e+00    0    1.09e+00
2006 09 03  1400    53981   50400      0    1.59e+00    0    1.11e+00
2006 09 03  1405    53981   50700      0    1.56e+00    0    1.10e+00
2006 09 03  1410    53981   51000      0    1.56e+00    0    1.08e+00
2006 09 03  1415    53981   51300      0    1.55e+00    0    1.08e+00
2006 09 03  1420    53981   51600      0    1.58e+00    0    1.11e+00
2006 09 03  1425    53981   51900      0    1.60e+00    0    1.12e+00
2006 09 03  1430    53981   52200      0    1.59e+00    0    1.10e+00
2006 09 03  1435    53981   52500      0    1.57e+00    0    1.10e+00
2006 09 03  1440    53981   52800      0    1.57e+00    0    1.09e+00
2006 09 03  1445    53981   53100      0    1.57e+00    0    1.09e+00
2006 09 03  1450    53981   53400      0    1.56e+00    0    1.09e+00
2006 09 03  1455    53981   53700      0    1.60e+00    0    1.12e+00
2006 09 03  1500    53981   54000      0    1.57e+00    0    1.11e+00
2006 09 03  1505    53981   54300      0    1.56e+00    0    1.08e+00
2006 09 03  1510    53981   54600      0    1.55e+00    0    1.07e+00
2006 09 03  1515    53981   54900      0    1.55e+00    0    1.08e+00
2006 09 03  1520    53981   55200      0    1.59e+00    0    1.12e+00
2006 09 03  1525    53981   55500      0    1.53e+00    0    1.06e+00
2006 09 03  1530    53981   55800      0    1.60e+00    0    1.11e+00
2006 09 03  1535    53981   56100      0    1.57e+00    0    1.10e+00
2006 09 03  1540    53981   56400      0    1.59e+00    0    1.12e+00
2006 09 03  1545    53981   56700      0    1.56e+00    0    1.09e+00
2006 09 03  1550    53981   57000      0    1.58e+00    0    1.11e+00
2006 09 03  1555    53981   57300      0    1.63e+00    0    1.14e+00
2006 09 03  1600    53981   57600      0    1.56e+00    0    1.08e+00
2006 09 03  1605    53981   57900      0    1.54e+00    0    1.08e+00
2006 09 03  1610    53981   58200      0    1.55e+00    0    1.10e+00
2006 09 03  1615    53981   58500      0    1.58e+00    0    1.09e+00
2006 09 03  1620    53981   58800      0    1.58e+00    0    1.12e+00
2006 09 03  1625    53981   59100      0    1.57e+00    0    1.09e+00
2006 09 03  1630    53981   59400      0    1.60e+00    0    1.12e+00
2006 09 03  1635    53981   59700      0    1.57e+00    0    1.10e+00
2006 09 03  1640    53981   60000      0    1.58e+00    0    1.10e+00
2006 09 03  1645    53981   60300      0    1.58e+00    0    1.11e+00
2006 09 03  1650    53981   60600      0    1.58e+00    0    1.11e+00
2006 09 03  1655    53981   60900      0    1.56e+00    0    1.08e+00
2006 09 03  1700    53981   61200      0    1.58e+00    0    1.11e+00
2006 09 03  1705    53981   61500      0    1.54e+00    0    1.07e+00
2006 09 03  1710    53981   61800      0    1.58e+00    0    1.11e+00
2006 09 03  1715    53981   62100      0    1.58e+00    0    1.11e+00
2006 09 03  1720    53981   62400      0    1.59e+00    0    1.11e+00
2006 09 03  1725    53981   62700      0    1.57e+00    0    1.10e+00
2006 09 03  1730    53981   63000      0    1.56e+00    0    1.09e+00
2006 09 03  1735    53981   63300      0    1.53e+00    0    1.07e+00
2006 09 03  1740    53981   63600      0    1.57e+00    0    1.10e+00
2006 09 03  1745    53981   63900      0    1.56e+00    0    1.09e+00
2006 09 03  1750    53981   64200      0    1.56e+00    0    1.09e+00
2006 09 03  1755    53981   64500      0    1.57e+00    0    1.10e+00
2006 09 03  1800    53981   64800      0    1.60e+00    0    1.12e+00
2006 09 03  1805    53981   65100      0    1.56e+00    0    1.09e+00
2006 09 03  1810    53981   65400      0    1.56e+00    0    1.09e+00
2006 09 03  1815    53981   65700      0    1.58e+00    0    1.10e+00
2006 09 03  1820    53981   66000      0    1.55e+00    0    1.09e+00
2006 09 03  1825    53981   66300      0    1.57e+00    0    1.10e+00
2006 09 03  1830    53981   66600      0    1.58e+00    0    1.11e+00
2006 09 03  1835    53981   66900      0    1.54e+00    0    1.08e+00
2006 09 03  1840    53981   67200      0    1.57e+00    0    1.11e+00
2006 09 03  1845    53981   67500      0    1.59e+00    0    1.11e+00
2006 09 03  1850    53981   67800      0    1.58e+00    0    1.10e+00
2006 09 03  1855    53981   68100      0    1.59e+00    0    1.11e+00
2006 09 03  1900    53981   68400      0    1.55e+00    0    1.08e+00
2006 09 03  1905    53981   68700      0    1.55e+00    0    1.09e+00
2006 09 03  1910    53981   69000      0    1.57e+00    0    1.09e+00
2006 09 03  1915    53981   69300      0    1.53e+00    0    1.07e+00
2006 09 03  1920    53981   69600      0    1.56e+00    0    1.09e+00
2006 09 03  1925    53981   69900      0    1.57e+00    0    1.10e+00
2006 09 03  1930    53981   70200      0    1.57e+00    0    1.12e+00
2006 09 03  1935    53981   70500      0    1.53e+00    0    1.06e+00
2006 09 03  1940    53981   70800      0    1.55e+00    0    1.08e+00
2006 09 03  1945    53981   71100      0    1.56e+00    0    1.09e+00
2006 09 03  1950    53981   71400      0    1.59e+00    0    1.11e+00
2006 09 03  1955    53981   71700      0    1.57e+00    0    1.09e+00
2006 09 03  2000    53981   72000      0    1.57e+00    0    1.09e+00
2006 09 03  2005    53981   72300      0    1.56e+00    0    1.09e+00
2006 09 03  2010    53981   72600      0    1.59e+00    0    1.12e+00
2006 09 03  2015    53981   72900      0    1.57e+00    0    1.10e+00
2006 09 03  2020    53981   73200      0    1.58e+00    0    1.12e+00
2006 09 03  2025    53981   73500      0    1.57e+00    0    1.10e+00
2006 09 03  2030    53981   73800      0    1.58e+00    0    1.10e+00
2006 09 03  2035    53981   74100      0    1.55e+00    0    1.09e+00
2006 09 03  2040    53981   74400      0    1.59e+00    0    1.12e+00
2006 09 03  2045    53981   74700      0    1.50e+00    0    1.04e+00
2006 09 03  2050    53981   75000      0    1.57e+00    0    1.10e+00
2006 09 03  2055    53981   75300      0    1.60e+00    0    1.11e+00
2006 09 03  2100    53981   75600      0    1.53e+00    0    1.05e+00
2006 09 03  2105    53981   75900      0    1.53e+00    0    1.07e+00
2006 09 03  2110    53981   76200      0    1.57e+00    0    1.10e+00
2006 09 03  2115    53981   76500      0    1.57e+00    0    1.10e+00
2006 09 03  2120    53981   76800      0    1.55e+00    0    1.08e+00
2006 09 03  2125    53981   77100      0    1.57e+00    0    1.10e+00
2006 09 03  2130    53981   77400      0    1.57e+00    0    1.10e+00
2006 09 03  2135    53981   77700      0    1.55e+00    0    1.08e+00
2006 09 03  2140    53981   78000      0    1.55e+00    0    1.09e+00
2006 09 03  2145    53981   78300      0    1.59e+00    0    1.12e+00
2006 09 03  2150    53981   78600      0    1.57e+00    0    1.10e+00
2006 09 03  2155    53981   78900      0    1.59e+00    0    1.13e+00
2006 09 03  2200    53981   79200      0    1.57e+00    0    1.09e+00
2006 09 03  2205    53981   79500      0    1.55e+00    0    1.08e+00
2006 09 03  2210    53981   79800      0    1.58e+00    0    1.11e+00
2006 09 03  2215    53981   80100      0    1.61e+00    0    1.13e+00
2006 09 03  2220    53981   80400      0    1.57e+00    0    1.10e+00
2006 09 03  2225    53981   80700      0    1.58e+00    0    1.10e+00
2006 09 03  2230    53981   81000      0    1.55e+00    0    1.08e+00
2006 09 03  2235    53981   81300      0    1.62e+00    0    1.14e+00
2006 09 03  2240    53981   81600      0    1.59e+00    0    1.11e+00
2006 09 03  2245    53981   81900      0    1.56e+00    0    1.09e+00
2006 09 03  2250    53981   82200      0    1.54e+00    0    1.07e+00
2006 09 03  2255    53981   82500      0    1.64e+00    0    1.17e+00
2006 09 03  2300    53981   82800      0    1.58e+00    0    1.10e+00
2006 09 03  2305    53981   83100      0    1.53e+00    0    1.07e+00
2006 09 03  2310    53981   83400      0    1.56e+00    0    1.09e+00
2006 09 03  2315    53981   83700      0    1.61e+00    0    1.13e+00
2006 09 03  2320    53981   84000      0    1.57e+00    0    1.11e+00
2006 09 03  2325    53981   84300      0    1.59e+00    0    1.13e+00
2006 09 03  2330    53981   84600      0    1.57e+00    0    1.09e+00
2006 09 03  2335    53981   84900      0    1.55e+00    0    1.09e+00
2006 09 03  2340    53981   85200      0    1.55e+00    0    1.09e+00
2006 09 03  2345    53981   85500      0    1.56e+00    0    1.09e+00
2006 09 03  2350    53981   85800      0    1.59e+00    0    1.11e+00
2006 09 03  2355    53981   86100      0    1.59e+00    0    1.12e+00
