:Data_list: 20061119_ace_sis_5m.txt
:Created: 2006 Nov 20 0011 UT
# Prepared by the U.S. Dept. of Commerce, NOAA, Space Environment Center.
# Please send comments and suggestions to SEC.Webmaster@noaa.gov 
# 
# Units: proton flux p/cs2-sec-ster
# Status(S): 0 = nominal data, 1 to 8 = bad data record, 9 = no data
# Missing data values: -1.00e+05
# Source: ACE Satellite - Solar Isotope Spectrometer
#
# 5-minute averaged Real-time Integral Flux of High-energy Solar Protons
# 
#                 Modified Seconds
# UT Date   Time   Julian  of the      ---- Integral Proton Flux ----
# YR MO DA  HHMM     Day     Day       S    > 10 MeV    S    > 30 MeV
#--------------------------------------------------------------------
2006 11 19  0000    54058       0      0    1.74e+00    0    1.22e+00
2006 11 19  0005    54058     300      0    1.72e+00    0    1.21e+00
2006 11 19  0010    54058     600      0    1.74e+00    0    1.23e+00
2006 11 19  0015    54058     900      0    1.73e+00    0    1.23e+00
2006 11 19  0020    54058    1200      0    1.71e+00    0    1.19e+00
2006 11 19  0025    54058    1500      0    1.75e+00    0    1.23e+00
2006 11 19  0030    54058    1800      0    1.69e+00    0    1.18e+00
2006 11 19  0035    54058    2100      0    1.74e+00    0    1.22e+00
2006 11 19  0040    54058    2400      0    1.72e+00    0    1.20e+00
2006 11 19  0045    54058    2700      0    1.72e+00    0    1.20e+00
2006 11 19  0050    54058    3000      0    1.74e+00    0    1.22e+00
2006 11 19  0055    54058    3300      0    1.71e+00    0    1.20e+00
2006 11 19  0100    54058    3600      0    1.73e+00    0    1.22e+00
2006 11 19  0105    54058    3900      0    1.73e+00    0    1.21e+00
2006 11 19  0110    54058    4200      0    1.76e+00    0    1.23e+00
2006 11 19  0115    54058    4500      0    1.70e+00    0    1.19e+00
2006 11 19  0120    54058    4800      0    1.71e+00    0    1.20e+00
2006 11 19  0125    54058    5100      0    1.71e+00    0    1.18e+00
2006 11 19  0130    54058    5400      0    1.75e+00    0    1.23e+00
2006 11 19  0135    54058    5700      0    1.72e+00    0    1.20e+00
2006 11 19  0140    54058    6000      0    1.72e+00    0    1.21e+00
2006 11 19  0145    54058    6300      0    1.72e+00    0    1.20e+00
2006 11 19  0150    54058    6600      0    1.71e+00    0    1.21e+00
2006 11 19  0155    54058    6900      0    1.71e+00    0    1.18e+00
2006 11 19  0200    54058    7200      0    1.69e+00    0    1.18e+00
2006 11 19  0205    54058    7500      0    1.70e+00    0    1.20e+00
2006 11 19  0210    54058    7800      0    1.73e+00    0    1.22e+00
2006 11 19  0215    54058    8100      0    1.69e+00    0    1.18e+00
2006 11 19  0220    54058    8400      0    1.69e+00    0    1.18e+00
2006 11 19  0225    54058    8700      0    1.71e+00    0    1.20e+00
2006 11 19  0230    54058    9000      0    1.74e+00    0    1.22e+00
2006 11 19  0235    54058    9300      0    1.73e+00    0    1.23e+00
2006 11 19  0240    54058    9600      0    1.68e+00    0    1.18e+00
2006 11 19  0245    54058    9900      0    1.74e+00    0    1.23e+00
2006 11 19  0250    54058   10200      0    1.70e+00    0    1.19e+00
2006 11 19  0255    54058   10500      0    1.69e+00    0    1.17e+00
2006 11 19  0300    54058   10800      0    1.70e+00    0    1.19e+00
2006 11 19  0305    54058   11100      0    1.73e+00    0    1.21e+00
2006 11 19  0310    54058   11400      0    1.74e+00    0    1.22e+00
2006 11 19  0315    54058   11700      0    1.74e+00    0    1.22e+00
2006 11 19  0320    54058   12000      0    1.68e+00    0    1.16e+00
2006 11 19  0325    54058   12300      0    1.77e+00    0    1.25e+00
2006 11 19  0330    54058   12600      0    1.75e+00    0    1.23e+00
2006 11 19  0335    54058   12900      0    1.70e+00    0    1.19e+00
2006 11 19  0340    54058   13200      0    1.73e+00    0    1.22e+00
2006 11 19  0345    54058   13500      0    1.73e+00    0    1.20e+00
2006 11 19  0350    54058   13800      0    1.78e+00    0    1.24e+00
2006 11 19  0355    54058   14100      0    1.79e+00    0    1.26e+00
2006 11 19  0400    54058   14400      0    1.74e+00    0    1.21e+00
2006 11 19  0405    54058   14700      0    1.77e+00    0    1.25e+00
2006 11 19  0410    54058   15000      0    1.80e+00    0    1.28e+00
2006 11 19  0415    54058   15300      0    1.76e+00    0    1.23e+00
2006 11 19  0420    54058   15600      0    1.70e+00    0    1.18e+00
2006 11 19  0425    54058   15900      0    1.78e+00    0    1.25e+00
2006 11 19  0430    54058   16200      0    1.77e+00    0    1.23e+00
2006 11 19  0435    54058   16500      0    1.74e+00    0    1.23e+00
2006 11 19  0440    54058   16800      0    1.76e+00    0    1.24e+00
2006 11 19  0445    54058   17100      0    1.75e+00    0    1.23e+00
2006 11 19  0450    54058   17400      0    1.75e+00    0    1.22e+00
2006 11 19  0455    54058   17700      0    1.76e+00    0    1.24e+00
2006 11 19  0500    54058   18000      0    1.73e+00    0    1.21e+00
2006 11 19  0505    54058   18300      0    1.72e+00    0    1.20e+00
2006 11 19  0510    54058   18600      0    1.77e+00    0    1.23e+00
2006 11 19  0515    54058   18900      0    1.74e+00    0    1.21e+00
2006 11 19  0520    54058   19200      0    1.75e+00    0    1.23e+00
2006 11 19  0525    54058   19500      0    1.73e+00    0    1.22e+00
2006 11 19  0530    54058   19800      0    1.75e+00    0    1.22e+00
2006 11 19  0535    54058   20100      0    1.77e+00    0    1.25e+00
2006 11 19  0540    54058   20400      0    1.80e+00    0    1.25e+00
2006 11 19  0545    54058   20700      0    1.74e+00    0    1.22e+00
2006 11 19  0550    54058   21000      0    1.76e+00    0    1.24e+00
2006 11 19  0555    54058   21300      0    1.82e+00    0    1.28e+00
2006 11 19  0600    54058   21600      0    1.77e+00    0    1.21e+00
2006 11 19  0605    54058   21900      0    1.79e+00    0    1.26e+00
2006 11 19  0610    54058   22200      0    1.75e+00    0    1.22e+00
2006 11 19  0615    54058   22500      0    1.77e+00    0    1.23e+00
2006 11 19  0620    54058   22800      0    1.80e+00    0    1.27e+00
2006 11 19  0625    54058   23100      0    1.76e+00    0    1.23e+00
2006 11 19  0630    54058   23400      0    1.74e+00    0    1.22e+00
2006 11 19  0635    54058   23700      0    1.77e+00    0    1.24e+00
2006 11 19  0640    54058   24000      0    1.76e+00    0    1.24e+00
2006 11 19  0645    54058   24300      0    1.75e+00    0    1.21e+00
2006 11 19  0650    54058   24600      0    1.77e+00    0    1.24e+00
2006 11 19  0655    54058   24900      0    1.76e+00    0    1.23e+00
2006 11 19  0700    54058   25200      9   -1.00e+05    9   -1.00e+05
2006 11 19  0705    54058   25500      0    1.78e+00    0    1.24e+00
2006 11 19  0710    54058   25800      0    1.74e+00    0    1.22e+00
2006 11 19  0715    54058   26100      0    1.77e+00    0    1.25e+00
2006 11 19  0720    54058   26400      0    1.77e+00    0    1.23e+00
2006 11 19  0725    54058   26700      0    1.71e+00    0    1.20e+00
2006 11 19  0730    54058   27000      0    1.74e+00    0    1.23e+00
2006 11 19  0735    54058   27300      0    1.78e+00    0    1.24e+00
2006 11 19  0740    54058   27600      0    1.76e+00    0    1.24e+00
2006 11 19  0745    54058   27900      0    1.75e+00    0    1.22e+00
2006 11 19  0750    54058   28200      0    1.76e+00    0    1.24e+00
2006 11 19  0755    54058   28500      0    1.71e+00    0    1.20e+00
2006 11 19  0800    54058   28800      0    1.72e+00    0    1.22e+00
2006 11 19  0805    54058   29100      0    1.74e+00    0    1.22e+00
2006 11 19  0810    54058   29400      0    1.75e+00    0    1.24e+00
2006 11 19  0815    54058   29700      0    1.72e+00    0    1.21e+00
2006 11 19  0820    54058   30000      0    1.79e+00    0    1.25e+00
2006 11 19  0825    54058   30300      0    1.73e+00    0    1.21e+00
2006 11 19  0830    54058   30600      0    1.78e+00    0    1.26e+00
2006 11 19  0835    54058   30900      0    1.72e+00    0    1.21e+00
2006 11 19  0840    54058   31200      0    1.77e+00    0    1.23e+00
2006 11 19  0845    54058   31500      0    1.72e+00    0    1.20e+00
2006 11 19  0850    54058   31800      0    1.77e+00    0    1.24e+00
2006 11 19  0855    54058   32100      0    1.74e+00    0    1.21e+00
2006 11 19  0900    54058   32400      0    1.73e+00    0    1.21e+00
2006 11 19  0905    54058   32700      0    1.73e+00    0    1.22e+00
2006 11 19  0910    54058   33000      0    1.76e+00    0    1.24e+00
2006 11 19  0915    54058   33300      0    1.73e+00    0    1.20e+00
2006 11 19  0920    54058   33600      0    1.77e+00    0    1.24e+00
2006 11 19  0925    54058   33900      0    1.76e+00    0    1.23e+00
2006 11 19  0930    54058   34200      0    1.71e+00    0    1.20e+00
2006 11 19  0935    54058   34500      0    1.75e+00    0    1.21e+00
2006 11 19  0940    54058   34800      0    1.75e+00    0    1.21e+00
2006 11 19  0945    54058   35100      0    1.79e+00    0    1.25e+00
2006 11 19  0950    54058   35400      0    1.78e+00    0    1.26e+00
2006 11 19  0955    54058   35700      0    1.75e+00    0    1.21e+00
2006 11 19  1000    54058   36000      0    1.76e+00    0    1.25e+00
2006 11 19  1005    54058   36300      0    1.75e+00    0    1.23e+00
2006 11 19  1010    54058   36600      0    1.73e+00    0    1.21e+00
2006 11 19  1015    54058   36900      0    1.75e+00    0    1.21e+00
2006 11 19  1020    54058   37200      0    1.79e+00    0    1.26e+00
2006 11 19  1025    54058   37500      0    1.71e+00    0    1.21e+00
2006 11 19  1030    54058   37800      0    1.72e+00    0    1.21e+00
2006 11 19  1035    54058   38100      0    1.74e+00    0    1.22e+00
2006 11 19  1040    54058   38400      0    1.75e+00    0    1.22e+00
2006 11 19  1045    54058   38700      0    1.73e+00    0    1.21e+00
2006 11 19  1050    54058   39000      0    1.74e+00    0    1.22e+00
2006 11 19  1055    54058   39300      0    1.76e+00    0    1.25e+00
2006 11 19  1100    54058   39600      0    1.74e+00    0    1.22e+00
2006 11 19  1105    54058   39900      0    1.75e+00    0    1.23e+00
2006 11 19  1110    54058   40200      0    1.77e+00    0    1.23e+00
2006 11 19  1115    54058   40500      0    1.75e+00    0    1.23e+00
2006 11 19  1120    54058   40800      0    1.75e+00    0    1.23e+00
2006 11 19  1125    54058   41100      0    1.72e+00    0    1.20e+00
2006 11 19  1130    54058   41400      0    1.72e+00    0    1.19e+00
2006 11 19  1135    54058   41700      0    1.71e+00    0    1.19e+00
2006 11 19  1140    54058   42000      0    1.78e+00    0    1.25e+00
2006 11 19  1145    54058   42300      0    1.72e+00    0    1.20e+00
2006 11 19  1150    54058   42600      0    1.70e+00    0    1.17e+00
2006 11 19  1155    54058   42900      0    1.76e+00    0    1.23e+00
2006 11 19  1200    54058   43200      0    1.76e+00    0    1.23e+00
2006 11 19  1205    54058   43500      0    1.77e+00    0    1.25e+00
2006 11 19  1210    54058   43800      0    1.76e+00    0    1.23e+00
2006 11 19  1215    54058   44100      0    1.73e+00    0    1.21e+00
2006 11 19  1220    54058   44400      0    1.72e+00    0    1.21e+00
2006 11 19  1225    54058   44700      0    1.77e+00    0    1.24e+00
2006 11 19  1230    54058   45000      0    1.78e+00    0    1.25e+00
2006 11 19  1235    54058   45300      0    1.74e+00    0    1.21e+00
2006 11 19  1240    54058   45600      0    1.69e+00    0    1.18e+00
2006 11 19  1245    54058   45900      0    1.74e+00    0    1.23e+00
2006 11 19  1250    54058   46200      0    1.77e+00    0    1.24e+00
2006 11 19  1255    54058   46500      0    1.74e+00    0    1.21e+00
2006 11 19  1300    54058   46800      0    1.78e+00    0    1.25e+00
2006 11 19  1305    54058   47100      0    1.72e+00    0    1.21e+00
2006 11 19  1310    54058   47400      0    1.76e+00    0    1.23e+00
2006 11 19  1315    54058   47700      0    1.76e+00    0    1.24e+00
2006 11 19  1320    54058   48000      0    1.76e+00    0    1.23e+00
2006 11 19  1325    54058   48300      0    1.74e+00    0    1.21e+00
2006 11 19  1330    54058   48600      0    1.77e+00    0    1.25e+00
2006 11 19  1335    54058   48900      0    1.74e+00    0    1.22e+00
2006 11 19  1340    54058   49200      0    1.76e+00    0    1.23e+00
2006 11 19  1345    54058   49500      0    1.75e+00    0    1.22e+00
2006 11 19  1350    54058   49800      0    1.74e+00    0    1.22e+00
2006 11 19  1355    54058   50100      0    1.75e+00    0    1.22e+00
2006 11 19  1400    54058   50400      0    1.79e+00    0    1.26e+00
2006 11 19  1405    54058   50700      0    1.75e+00    0    1.23e+00
2006 11 19  1410    54058   51000      0    1.74e+00    0    1.22e+00
2006 11 19  1415    54058   51300      0    1.74e+00    0    1.23e+00
2006 11 19  1420    54058   51600      0    1.74e+00    0    1.22e+00
2006 11 19  1425    54058   51900      0    1.77e+00    0    1.23e+00
2006 11 19  1430    54058   52200      0    1.78e+00    0    1.23e+00
2006 11 19  1435    54058   52500      0    1.76e+00    0    1.23e+00
2006 11 19  1440    54058   52800      0    1.78e+00    0    1.24e+00
2006 11 19  1445    54058   53100      0    1.74e+00    0    1.23e+00
2006 11 19  1450    54058   53400      0    1.80e+00    0    1.25e+00
2006 11 19  1455    54058   53700      0    1.78e+00    0    1.25e+00
2006 11 19  1500    54058   54000      0    1.80e+00    0    1.28e+00
2006 11 19  1505    54058   54300      0    1.77e+00    0    1.24e+00
2006 11 19  1510    54058   54600      0    1.77e+00    0    1.25e+00
2006 11 19  1515    54058   54900      0    1.75e+00    0    1.23e+00
2006 11 19  1520    54058   55200      0    1.78e+00    0    1.25e+00
2006 11 19  1525    54058   55500      0    1.80e+00    0    1.26e+00
2006 11 19  1530    54058   55800      0    1.76e+00    0    1.24e+00
2006 11 19  1535    54058   56100      0    1.79e+00    0    1.27e+00
2006 11 19  1540    54058   56400      0    1.77e+00    0    1.24e+00
2006 11 19  1545    54058   56700      0    1.80e+00    0    1.25e+00
2006 11 19  1550    54058   57000      0    1.73e+00    0    1.21e+00
2006 11 19  1555    54058   57300      0    1.78e+00    0    1.24e+00
2006 11 19  1600    54058   57600      0    1.77e+00    0    1.23e+00
2006 11 19  1605    54058   57900      0    1.73e+00    0    1.23e+00
2006 11 19  1610    54058   58200      0    1.76e+00    0    1.23e+00
2006 11 19  1615    54058   58500      0    1.73e+00    0    1.21e+00
2006 11 19  1620    54058   58800      0    1.75e+00    0    1.22e+00
2006 11 19  1625    54058   59100      0    1.75e+00    0    1.21e+00
2006 11 19  1630    54058   59400      0    1.74e+00    0    1.22e+00
2006 11 19  1635    54058   59700      0    1.71e+00    0    1.20e+00
2006 11 19  1640    54058   60000      0    1.77e+00    0    1.23e+00
2006 11 19  1645    54058   60300      0    1.76e+00    0    1.23e+00
2006 11 19  1650    54058   60600      0    1.73e+00    0    1.21e+00
2006 11 19  1655    54058   60900      0    1.71e+00    0    1.19e+00
2006 11 19  1700    54058   61200      0    1.76e+00    0    1.22e+00
2006 11 19  1705    54058   61500      0    1.74e+00    0    1.21e+00
2006 11 19  1710    54058   61800      0    1.71e+00    0    1.19e+00
2006 11 19  1715    54058   62100      0    1.75e+00    0    1.23e+00
2006 11 19  1720    54058   62400      0    1.73e+00    0    1.20e+00
2006 11 19  1725    54058   62700      0    1.72e+00    0    1.22e+00
2006 11 19  1730    54058   63000      0    1.73e+00    0    1.21e+00
2006 11 19  1735    54058   63300      0    1.75e+00    0    1.21e+00
2006 11 19  1740    54058   63600      0    1.76e+00    0    1.22e+00
2006 11 19  1745    54058   63900      0    1.73e+00    0    1.21e+00
2006 11 19  1750    54058   64200      0    1.72e+00    0    1.21e+00
2006 11 19  1755    54058   64500      0    1.73e+00    0    1.21e+00
2006 11 19  1800    54058   64800      0    1.74e+00    0    1.22e+00
2006 11 19  1805    54058   65100      0    1.72e+00    0    1.20e+00
2006 11 19  1810    54058   65400      0    1.69e+00    0    1.17e+00
2006 11 19  1815    54058   65700      0    1.77e+00    0    1.23e+00
2006 11 19  1820    54058   66000      0    1.77e+00    0    1.24e+00
2006 11 19  1825    54058   66300      0    1.70e+00    0    1.20e+00
2006 11 19  1830    54058   66600      0    1.76e+00    0    1.24e+00
2006 11 19  1835    54058   66900      0    1.74e+00    0    1.21e+00
2006 11 19  1840    54058   67200      0    1.77e+00    0    1.24e+00
2006 11 19  1845    54058   67500      0    1.77e+00    0    1.24e+00
2006 11 19  1850    54058   67800      0    1.75e+00    0    1.22e+00
2006 11 19  1855    54058   68100      0    1.72e+00    0    1.20e+00
2006 11 19  1900    54058   68400      0    1.77e+00    0    1.25e+00
2006 11 19  1905    54058   68700      0    1.73e+00    0    1.20e+00
2006 11 19  1910    54058   69000      0    1.75e+00    0    1.24e+00
2006 11 19  1915    54058   69300      0    1.79e+00    0    1.26e+00
2006 11 19  1920    54058   69600      0    1.76e+00    0    1.23e+00
2006 11 19  1925    54058   69900      0    1.77e+00    0    1.24e+00
2006 11 19  1930    54058   70200      0    1.72e+00    0    1.20e+00
2006 11 19  1935    54058   70500      0    1.74e+00    0    1.23e+00
2006 11 19  1940    54058   70800      0    1.73e+00    0    1.21e+00
2006 11 19  1945    54058   71100      0    1.72e+00    0    1.20e+00
2006 11 19  1950    54058   71400      0    1.74e+00    0    1.22e+00
2006 11 19  1955    54058   71700      0    1.72e+00    0    1.21e+00
2006 11 19  2000    54058   72000      0    1.75e+00    0    1.22e+00
2006 11 19  2005    54058   72300      0    1.75e+00    0    1.22e+00
2006 11 19  2010    54058   72600      0    1.78e+00    0    1.25e+00
2006 11 19  2015    54058   72900      0    1.75e+00    0    1.23e+00
2006 11 19  2020    54058   73200      0    1.74e+00    0    1.22e+00
2006 11 19  2025    54058   73500      0    1.74e+00    0    1.20e+00
2006 11 19  2030    54058   73800      0    1.77e+00    0    1.23e+00
2006 11 19  2035    54058   74100      0    1.79e+00    0    1.25e+00
2006 11 19  2040    54058   74400      0    1.74e+00    0    1.20e+00
2006 11 19  2045    54058   74700      0    1.76e+00    0    1.24e+00
2006 11 19  2050    54058   75000      9   -1.00e+05    9   -1.00e+05
2006 11 19  2055    54058   75300      9   -1.00e+05    9   -1.00e+05
2006 11 19  2100    54058   75600      9   -1.00e+05    9   -1.00e+05
2006 11 19  2105    54058   75900      9   -1.00e+05    9   -1.00e+05
2006 11 19  2110    54058   76200      9   -1.00e+05    9   -1.00e+05
2006 11 19  2115    54058   76500      9   -1.00e+05    9   -1.00e+05
2006 11 19  2120    54058   76800      9   -1.00e+05    9   -1.00e+05
2006 11 19  2125    54058   77100      9   -1.00e+05    9   -1.00e+05
2006 11 19  2130    54058   77400      9   -1.00e+05    9   -1.00e+05
2006 11 19  2135    54058   77700      0    1.79e+00    0    1.22e+00
2006 11 19  2140    54058   78000      0    1.72e+00    0    1.19e+00
2006 11 19  2145    54058   78300      0    1.76e+00    0    1.24e+00
2006 11 19  2150    54058   78600      0    1.78e+00    0    1.24e+00
2006 11 19  2155    54058   78900      0    1.74e+00    0    1.23e+00
2006 11 19  2200    54058   79200      0    1.79e+00    0    1.26e+00
2006 11 19  2205    54058   79500      0    1.76e+00    0    1.23e+00
2006 11 19  2210    54058   79800      0    1.79e+00    0    1.25e+00
2006 11 19  2215    54058   80100      0    1.79e+00    0    1.26e+00
2006 11 19  2220    54058   80400      0    1.78e+00    0    1.24e+00
2006 11 19  2225    54058   80700      0    1.78e+00    0    1.25e+00
2006 11 19  2230    54058   81000      0    1.81e+00    0    1.28e+00
2006 11 19  2235    54058   81300      0    1.75e+00    0    1.25e+00
2006 11 19  2240    54058   81600      0    1.77e+00    0    1.24e+00
2006 11 19  2245    54058   81900      0    1.78e+00    0    1.24e+00
2006 11 19  2250    54058   82200      0    1.77e+00    0    1.23e+00
2006 11 19  2255    54058   82500      9   -1.00e+05    9   -1.00e+05
2006 11 19  2300    54058   82800      9   -1.00e+05    9   -1.00e+05
2006 11 19  2305    54058   83100      9   -1.00e+05    9   -1.00e+05
2006 11 19  2310    54058   83400      9   -1.00e+05    9   -1.00e+05
2006 11 19  2315    54058   83700      9   -1.00e+05    9   -1.00e+05
2006 11 19  2320    54058   84000      9   -1.00e+05    9   -1.00e+05
2006 11 19  2325    54058   84300      9   -1.00e+05    9   -1.00e+05
2006 11 19  2330    54058   84600      9   -1.00e+05    9   -1.00e+05
2006 11 19  2335    54058   84900      0    1.73e+00    0    1.24e+00
2006 11 19  2340    54058   85200      0    1.79e+00    0    1.25e+00
2006 11 19  2345    54058   85500      0    1.77e+00    0    1.25e+00
2006 11 19  2350    54058   85800      0    1.79e+00    0    1.27e+00
2006 11 19  2355    54058   86100      0    1.78e+00    0    1.24e+00
