:Data_list: 20061013_ace_sis_5m.txt
:Created: 2006 Oct 14 0011 UT
# Prepared by the U.S. Dept. of Commerce, NOAA, Space Environment Center.
# Please send comments and suggestions to SEC.Webmaster@noaa.gov 
# 
# Units: proton flux p/cs2-sec-ster
# Status(S): 0 = nominal data, 1 to 8 = bad data record, 9 = no data
# Missing data values: -1.00e+05
# Source: ACE Satellite - Solar Isotope Spectrometer
#
# 5-minute averaged Real-time Integral Flux of High-energy Solar Protons
# 
#                 Modified Seconds
# UT Date   Time   Julian  of the      ---- Integral Proton Flux ----
# YR MO DA  HHMM     Day     Day       S    > 10 MeV    S    > 30 MeV
#--------------------------------------------------------------------
2006 10 13  0000    54021       0      0    1.73e+00    0    1.21e+00
2006 10 13  0005    54021     300      0    1.74e+00    0    1.22e+00
2006 10 13  0010    54021     600      0    1.68e+00    0    1.17e+00
2006 10 13  0015    54021     900      0    1.77e+00    0    1.24e+00
2006 10 13  0020    54021    1200      0    1.73e+00    0    1.21e+00
2006 10 13  0025    54021    1500      0    1.71e+00    0    1.19e+00
2006 10 13  0030    54021    1800      0    1.76e+00    0    1.24e+00
2006 10 13  0035    54021    2100      0    1.72e+00    0    1.19e+00
2006 10 13  0040    54021    2400      0    1.71e+00    0    1.20e+00
2006 10 13  0045    54021    2700      0    1.71e+00    0    1.21e+00
2006 10 13  0050    54021    3000      0    1.74e+00    0    1.22e+00
2006 10 13  0055    54021    3300      0    1.74e+00    0    1.22e+00
2006 10 13  0100    54021    3600      0    1.70e+00    0    1.18e+00
2006 10 13  0105    54021    3900      0    1.65e+00    0    1.15e+00
2006 10 13  0110    54021    4200      0    1.75e+00    0    1.21e+00
2006 10 13  0115    54021    4500      0    1.71e+00    0    1.20e+00
2006 10 13  0120    54021    4800      0    1.76e+00    0    1.24e+00
2006 10 13  0125    54021    5100      0    1.78e+00    0    1.24e+00
2006 10 13  0130    54021    5400      0    1.68e+00    0    1.18e+00
2006 10 13  0135    54021    5700      0    1.71e+00    0    1.21e+00
2006 10 13  0140    54021    6000      0    1.73e+00    0    1.21e+00
2006 10 13  0145    54021    6300      0    1.71e+00    0    1.19e+00
2006 10 13  0150    54021    6600      0    1.72e+00    0    1.20e+00
2006 10 13  0155    54021    6900      0    1.73e+00    0    1.21e+00
2006 10 13  0200    54021    7200      0    1.69e+00    0    1.18e+00
2006 10 13  0205    54021    7500      0    1.72e+00    0    1.20e+00
2006 10 13  0210    54021    7800      0    1.72e+00    0    1.21e+00
2006 10 13  0215    54021    8100      0    1.72e+00    0    1.21e+00
2006 10 13  0220    54021    8400      0    1.71e+00    0    1.20e+00
2006 10 13  0225    54021    8700      0    1.74e+00    0    1.22e+00
2006 10 13  0230    54021    9000      0    1.73e+00    0    1.21e+00
2006 10 13  0235    54021    9300      0    1.72e+00    0    1.19e+00
2006 10 13  0240    54021    9600      0    1.72e+00    0    1.21e+00
2006 10 13  0245    54021    9900      0    1.69e+00    0    1.19e+00
2006 10 13  0250    54021   10200      0    1.71e+00    0    1.20e+00
2006 10 13  0255    54021   10500      0    1.72e+00    0    1.21e+00
2006 10 13  0300    54021   10800      0    1.79e+00    0    1.25e+00
2006 10 13  0305    54021   11100      0    1.72e+00    0    1.21e+00
2006 10 13  0310    54021   11400      0    1.70e+00    0    1.20e+00
2006 10 13  0315    54021   11700      0    1.75e+00    0    1.23e+00
2006 10 13  0320    54021   12000      0    1.76e+00    0    1.22e+00
2006 10 13  0325    54021   12300      0    1.71e+00    0    1.20e+00
2006 10 13  0330    54021   12600      0    1.73e+00    0    1.21e+00
2006 10 13  0335    54021   12900      0    1.71e+00    0    1.21e+00
2006 10 13  0340    54021   13200      0    1.71e+00    0    1.19e+00
2006 10 13  0345    54021   13500      0    1.73e+00    0    1.21e+00
2006 10 13  0350    54021   13800      0    1.73e+00    0    1.22e+00
2006 10 13  0355    54021   14100      0    1.72e+00    0    1.20e+00
2006 10 13  0400    54021   14400      0    1.68e+00    0    1.18e+00
2006 10 13  0405    54021   14700      0    1.72e+00    0    1.22e+00
2006 10 13  0410    54021   15000      0    1.73e+00    0    1.21e+00
2006 10 13  0415    54021   15300      0    1.71e+00    0    1.19e+00
2006 10 13  0420    54021   15600      0    1.73e+00    0    1.21e+00
2006 10 13  0425    54021   15900      0    1.73e+00    0    1.20e+00
2006 10 13  0430    54021   16200      0    1.72e+00    0    1.20e+00
2006 10 13  0435    54021   16500      0    1.71e+00    0    1.20e+00
2006 10 13  0440    54021   16800      0    1.74e+00    0    1.22e+00
2006 10 13  0445    54021   17100      0    1.72e+00    0    1.20e+00
2006 10 13  0450    54021   17400      0    1.72e+00    0    1.22e+00
2006 10 13  0455    54021   17700      0    1.73e+00    0    1.22e+00
2006 10 13  0500    54021   18000      0    1.71e+00    0    1.20e+00
2006 10 13  0505    54021   18300      0    1.71e+00    0    1.20e+00
2006 10 13  0510    54021   18600      0    1.68e+00    0    1.17e+00
2006 10 13  0515    54021   18900      0    1.72e+00    0    1.19e+00
2006 10 13  0520    54021   19200      0    1.70e+00    0    1.19e+00
2006 10 13  0525    54021   19500      0    1.73e+00    0    1.22e+00
2006 10 13  0530    54021   19800      0    1.73e+00    0    1.22e+00
2006 10 13  0535    54021   20100      0    1.69e+00    0    1.19e+00
2006 10 13  0540    54021   20400      0    1.71e+00    0    1.19e+00
2006 10 13  0545    54021   20700      0    1.73e+00    0    1.22e+00
2006 10 13  0550    54021   21000      0    1.74e+00    0    1.22e+00
2006 10 13  0555    54021   21300      0    1.72e+00    0    1.21e+00
2006 10 13  0600    54021   21600      0    1.62e+00    0    1.12e+00
2006 10 13  0605    54021   21900      0    1.72e+00    0    1.20e+00
2006 10 13  0610    54021   22200      0    1.73e+00    0    1.21e+00
2006 10 13  0615    54021   22500      0    1.72e+00    0    1.22e+00
2006 10 13  0620    54021   22800      0    1.75e+00    0    1.24e+00
2006 10 13  0625    54021   23100      0    1.75e+00    0    1.23e+00
2006 10 13  0630    54021   23400      0    1.64e+00    0    1.14e+00
2006 10 13  0635    54021   23700      0    1.71e+00    0    1.19e+00
2006 10 13  0640    54021   24000      0    1.70e+00    0    1.20e+00
2006 10 13  0645    54021   24300      0    1.73e+00    0    1.22e+00
2006 10 13  0650    54021   24600      0    1.72e+00    0    1.21e+00
2006 10 13  0655    54021   24900      0    1.75e+00    0    1.23e+00
2006 10 13  0700    54021   25200      0    1.66e+00    0    1.16e+00
2006 10 13  0705    54021   25500      0    1.74e+00    0    1.22e+00
2006 10 13  0710    54021   25800      0    1.69e+00    0    1.18e+00
2006 10 13  0715    54021   26100      0    1.73e+00    0    1.21e+00
2006 10 13  0720    54021   26400      0    1.74e+00    0    1.22e+00
2006 10 13  0725    54021   26700      0    1.73e+00    0    1.21e+00
2006 10 13  0730    54021   27000      0    1.75e+00    0    1.23e+00
2006 10 13  0735    54021   27300      0    1.71e+00    0    1.19e+00
2006 10 13  0740    54021   27600      0    1.75e+00    0    1.24e+00
2006 10 13  0745    54021   27900      0    1.71e+00    0    1.20e+00
2006 10 13  0750    54021   28200      0    1.69e+00    0    1.19e+00
2006 10 13  0755    54021   28500      0    1.70e+00    0    1.20e+00
2006 10 13  0800    54021   28800      0    1.74e+00    0    1.22e+00
2006 10 13  0805    54021   29100      0    1.74e+00    0    1.22e+00
2006 10 13  0810    54021   29400      0    1.79e+00    0    1.26e+00
2006 10 13  0815    54021   29700      0    1.70e+00    0    1.19e+00
2006 10 13  0820    54021   30000      0    1.68e+00    0    1.18e+00
2006 10 13  0825    54021   30300      0    1.71e+00    0    1.18e+00
2006 10 13  0830    54021   30600      0    1.71e+00    0    1.20e+00
2006 10 13  0835    54021   30900      0    1.72e+00    0    1.20e+00
2006 10 13  0840    54021   31200      0    1.73e+00    0    1.21e+00
2006 10 13  0845    54021   31500      0    1.73e+00    0    1.21e+00
2006 10 13  0850    54021   31800      0    1.71e+00    0    1.20e+00
2006 10 13  0855    54021   32100      0    1.70e+00    0    1.20e+00
2006 10 13  0900    54021   32400      0    1.72e+00    0    1.22e+00
2006 10 13  0905    54021   32700      0    1.72e+00    0    1.20e+00
2006 10 13  0910    54021   33000      0    1.72e+00    0    1.21e+00
2006 10 13  0915    54021   33300      0    1.70e+00    0    1.20e+00
2006 10 13  0920    54021   33600      0    1.70e+00    0    1.19e+00
2006 10 13  0925    54021   33900      0    1.73e+00    0    1.22e+00
2006 10 13  0930    54021   34200      0    1.71e+00    0    1.20e+00
2006 10 13  0935    54021   34500      0    1.70e+00    0    1.19e+00
2006 10 13  0940    54021   34800      0    1.70e+00    0    1.18e+00
2006 10 13  0945    54021   35100      0    1.71e+00    0    1.19e+00
2006 10 13  0950    54021   35400      0    1.70e+00    0    1.20e+00
2006 10 13  0955    54021   35700      0    1.71e+00    0    1.20e+00
2006 10 13  1000    54021   36000      0    1.70e+00    0    1.20e+00
2006 10 13  1005    54021   36300      0    1.71e+00    0    1.19e+00
2006 10 13  1010    54021   36600      0    1.71e+00    0    1.20e+00
2006 10 13  1015    54021   36900      0    1.72e+00    0    1.21e+00
2006 10 13  1020    54021   37200      0    1.71e+00    0    1.21e+00
2006 10 13  1025    54021   37500      0    1.67e+00    0    1.18e+00
2006 10 13  1030    54021   37800      0    1.67e+00    0    1.15e+00
2006 10 13  1035    54021   38100      0    1.70e+00    0    1.18e+00
2006 10 13  1040    54021   38400      0    1.72e+00    0    1.20e+00
2006 10 13  1045    54021   38700      0    1.73e+00    0    1.21e+00
2006 10 13  1050    54021   39000      0    1.68e+00    0    1.17e+00
2006 10 13  1055    54021   39300      0    1.70e+00    0    1.20e+00
2006 10 13  1100    54021   39600      0    1.73e+00    0    1.21e+00
2006 10 13  1105    54021   39900      0    1.75e+00    0    1.23e+00
2006 10 13  1110    54021   40200      0    1.71e+00    0    1.19e+00
2006 10 13  1115    54021   40500      0    1.69e+00    0    1.19e+00
2006 10 13  1120    54021   40800      0    1.68e+00    0    1.18e+00
2006 10 13  1125    54021   41100      0    1.67e+00    0    1.17e+00
2006 10 13  1130    54021   41400      0    1.71e+00    0    1.20e+00
2006 10 13  1135    54021   41700      0    1.69e+00    0    1.19e+00
2006 10 13  1140    54021   42000      0    1.70e+00    0    1.20e+00
2006 10 13  1145    54021   42300      0    1.70e+00    0    1.18e+00
2006 10 13  1150    54021   42600      0    1.69e+00    0    1.19e+00
2006 10 13  1155    54021   42900      0    1.69e+00    0    1.19e+00
2006 10 13  1200    54021   43200      0    1.70e+00    0    1.18e+00
2006 10 13  1205    54021   43500      0    1.69e+00    0    1.17e+00
2006 10 13  1210    54021   43800      0    1.68e+00    0    1.18e+00
2006 10 13  1215    54021   44100      0    1.75e+00    0    1.23e+00
2006 10 13  1220    54021   44400      0    1.65e+00    0    1.16e+00
2006 10 13  1225    54021   44700      0    1.73e+00    0    1.21e+00
2006 10 13  1230    54021   45000      0    1.73e+00    0    1.21e+00
2006 10 13  1235    54021   45300      0    1.71e+00    0    1.20e+00
2006 10 13  1240    54021   45600      0    1.72e+00    0    1.21e+00
2006 10 13  1245    54021   45900      0    1.67e+00    0    1.15e+00
2006 10 13  1250    54021   46200      0    1.71e+00    0    1.20e+00
2006 10 13  1255    54021   46500      0    1.73e+00    0    1.21e+00
2006 10 13  1300    54021   46800      0    1.71e+00    0    1.21e+00
2006 10 13  1305    54021   47100      0    1.65e+00    0    1.17e+00
2006 10 13  1310    54021   47400      0    1.69e+00    0    1.17e+00
2006 10 13  1315    54021   47700      0    1.70e+00    0    1.18e+00
2006 10 13  1320    54021   48000      0    1.67e+00    0    1.17e+00
2006 10 13  1325    54021   48300      0    1.70e+00    0    1.18e+00
2006 10 13  1330    54021   48600      0    1.70e+00    0    1.19e+00
2006 10 13  1335    54021   48900      0    1.71e+00    0    1.21e+00
2006 10 13  1340    54021   49200      0    1.68e+00    0    1.18e+00
2006 10 13  1345    54021   49500      0    1.70e+00    0    1.19e+00
2006 10 13  1350    54021   49800      0    1.72e+00    0    1.20e+00
2006 10 13  1355    54021   50100      0    1.72e+00    0    1.22e+00
2006 10 13  1400    54021   50400      0    1.68e+00    0    1.19e+00
2006 10 13  1405    54021   50700      0    1.69e+00    0    1.19e+00
2006 10 13  1410    54021   51000      0    1.66e+00    0    1.17e+00
2006 10 13  1415    54021   51300      0    1.72e+00    0    1.20e+00
2006 10 13  1420    54021   51600      0    1.70e+00    0    1.19e+00
2006 10 13  1425    54021   51900      0    1.73e+00    0    1.22e+00
2006 10 13  1430    54021   52200      0    1.67e+00    0    1.17e+00
2006 10 13  1435    54021   52500      0    1.71e+00    0    1.18e+00
2006 10 13  1440    54021   52800      0    1.66e+00    0    1.16e+00
2006 10 13  1445    54021   53100      0    1.63e+00    0    1.15e+00
2006 10 13  1450    54021   53400      0    1.70e+00    0    1.19e+00
2006 10 13  1455    54021   53700      0    1.74e+00    0    1.22e+00
2006 10 13  1500    54021   54000      0    1.69e+00    0    1.19e+00
2006 10 13  1505    54021   54300      0    1.66e+00    0    1.17e+00
2006 10 13  1510    54021   54600      0    1.67e+00    0    1.18e+00
2006 10 13  1515    54021   54900      0    1.69e+00    0    1.17e+00
2006 10 13  1520    54021   55200      0    1.71e+00    0    1.21e+00
2006 10 13  1525    54021   55500      0    1.71e+00    0    1.20e+00
2006 10 13  1530    54021   55800      0    1.68e+00    0    1.17e+00
2006 10 13  1535    54021   56100      0    1.68e+00    0    1.18e+00
2006 10 13  1540    54021   56400      0    1.67e+00    0    1.17e+00
2006 10 13  1545    54021   56700      0    1.69e+00    0    1.18e+00
2006 10 13  1550    54021   57000      0    1.72e+00    0    1.19e+00
2006 10 13  1555    54021   57300      0    1.69e+00    0    1.19e+00
2006 10 13  1600    54021   57600      0    1.69e+00    0    1.17e+00
2006 10 13  1605    54021   57900      0    1.71e+00    0    1.20e+00
2006 10 13  1610    54021   58200      0    1.69e+00    0    1.17e+00
2006 10 13  1615    54021   58500      0    1.69e+00    0    1.17e+00
2006 10 13  1620    54021   58800      0    1.68e+00    0    1.17e+00
2006 10 13  1625    54021   59100      0    1.72e+00    0    1.22e+00
2006 10 13  1630    54021   59400      0    1.70e+00    0    1.20e+00
2006 10 13  1635    54021   59700      0    1.67e+00    0    1.17e+00
2006 10 13  1640    54021   60000      0    1.71e+00    0    1.21e+00
2006 10 13  1645    54021   60300      0    1.70e+00    0    1.19e+00
2006 10 13  1650    54021   60600      0    1.68e+00    0    1.19e+00
2006 10 13  1655    54021   60900      0    1.71e+00    0    1.20e+00
2006 10 13  1700    54021   61200      0    1.67e+00    0    1.17e+00
2006 10 13  1705    54021   61500      0    1.70e+00    0    1.20e+00
2006 10 13  1710    54021   61800      0    1.70e+00    0    1.18e+00
2006 10 13  1715    54021   62100      0    1.68e+00    0    1.19e+00
2006 10 13  1720    54021   62400      0    1.65e+00    0    1.15e+00
2006 10 13  1725    54021   62700      0    1.71e+00    0    1.21e+00
2006 10 13  1730    54021   63000      0    1.67e+00    0    1.17e+00
2006 10 13  1735    54021   63300      0    1.74e+00    0    1.22e+00
2006 10 13  1740    54021   63600      0    1.65e+00    0    1.16e+00
2006 10 13  1745    54021   63900      0    1.66e+00    0    1.18e+00
2006 10 13  1750    54021   64200      0    1.68e+00    0    1.18e+00
2006 10 13  1755    54021   64500      0    1.68e+00    0    1.19e+00
2006 10 13  1800    54021   64800      0    1.68e+00    0    1.18e+00
2006 10 13  1805    54021   65100      0    1.66e+00    0    1.17e+00
2006 10 13  1810    54021   65400      0    1.65e+00    0    1.16e+00
2006 10 13  1815    54021   65700      0    1.66e+00    0    1.18e+00
2006 10 13  1820    54021   66000      0    1.70e+00    0    1.20e+00
2006 10 13  1825    54021   66300      0    1.71e+00    0    1.19e+00
2006 10 13  1830    54021   66600      0    1.69e+00    0    1.19e+00
2006 10 13  1835    54021   66900      0    1.64e+00    0    1.15e+00
2006 10 13  1840    54021   67200      0    1.69e+00    0    1.17e+00
2006 10 13  1845    54021   67500      0    1.67e+00    0    1.17e+00
2006 10 13  1850    54021   67800      0    1.65e+00    0    1.17e+00
2006 10 13  1855    54021   68100      0    1.69e+00    0    1.19e+00
2006 10 13  1900    54021   68400      0    1.65e+00    0    1.15e+00
2006 10 13  1905    54021   68700      0    1.69e+00    0    1.20e+00
2006 10 13  1910    54021   69000      0    1.67e+00    0    1.16e+00
2006 10 13  1915    54021   69300      0    1.71e+00    0    1.20e+00
2006 10 13  1920    54021   69600      0    1.73e+00    0    1.21e+00
2006 10 13  1925    54021   69900      0    1.64e+00    0    1.15e+00
2006 10 13  1930    54021   70200      0    1.67e+00    0    1.18e+00
2006 10 13  1935    54021   70500      0    1.70e+00    0    1.19e+00
2006 10 13  1940    54021   70800      0    1.72e+00    0    1.21e+00
2006 10 13  1945    54021   71100      0    1.69e+00    0    1.19e+00
2006 10 13  1950    54021   71400      0    1.71e+00    0    1.19e+00
2006 10 13  1955    54021   71700      0    1.74e+00    0    1.23e+00
2006 10 13  2000    54021   72000      0    1.69e+00    0    1.18e+00
2006 10 13  2005    54021   72300      0    1.70e+00    0    1.19e+00
2006 10 13  2010    54021   72600      0    1.72e+00    0    1.21e+00
2006 10 13  2015    54021   72900      0    1.68e+00    0    1.17e+00
2006 10 13  2020    54021   73200      0    1.69e+00    0    1.19e+00
2006 10 13  2025    54021   73500      0    1.67e+00    0    1.17e+00
2006 10 13  2030    54021   73800      0    1.69e+00    0    1.19e+00
2006 10 13  2035    54021   74100      0    1.69e+00    0    1.19e+00
2006 10 13  2040    54021   74400      0    1.65e+00    0    1.16e+00
2006 10 13  2045    54021   74700      0    1.69e+00    0    1.18e+00
2006 10 13  2050    54021   75000      0    1.69e+00    0    1.18e+00
2006 10 13  2055    54021   75300      0    1.69e+00    0    1.20e+00
2006 10 13  2100    54021   75600      0    1.69e+00    0    1.18e+00
2006 10 13  2105    54021   75900      0    1.67e+00    0    1.17e+00
2006 10 13  2110    54021   76200      0    1.67e+00    0    1.18e+00
2006 10 13  2115    54021   76500      0    1.70e+00    0    1.19e+00
2006 10 13  2120    54021   76800      0    1.73e+00    0    1.23e+00
2006 10 13  2125    54021   77100      0    1.70e+00    0    1.19e+00
2006 10 13  2130    54021   77400      0    1.65e+00    0    1.16e+00
2006 10 13  2135    54021   77700      0    1.69e+00    0    1.18e+00
2006 10 13  2140    54021   78000      9   -1.00e+05    9   -1.00e+05
2006 10 13  2145    54021   78300      9   -1.00e+05    9   -1.00e+05
2006 10 13  2150    54021   78600      9   -1.00e+05    9   -1.00e+05
2006 10 13  2155    54021   78900      9   -1.00e+05    9   -1.00e+05
2006 10 13  2200    54021   79200      9   -1.00e+05    9   -1.00e+05
2006 10 13  2205    54021   79500      9   -1.00e+05    9   -1.00e+05
2006 10 13  2210    54021   79800      9   -1.00e+05    9   -1.00e+05
2006 10 13  2215    54021   80100      9   -1.00e+05    9   -1.00e+05
2006 10 13  2220    54021   80400      0    1.70e+00    0    1.19e+00
2006 10 13  2225    54021   80700      0    1.64e+00    0    1.14e+00
2006 10 13  2230    54021   81000      0    1.66e+00    0    1.17e+00
2006 10 13  2235    54021   81300      0    1.66e+00    0    1.16e+00
2006 10 13  2240    54021   81600      0    1.69e+00    0    1.19e+00
2006 10 13  2245    54021   81900      0    1.68e+00    0    1.17e+00
2006 10 13  2250    54021   82200      0    1.67e+00    0    1.16e+00
2006 10 13  2255    54021   82500      0    1.67e+00    0    1.17e+00
2006 10 13  2300    54021   82800      0    1.70e+00    0    1.19e+00
2006 10 13  2305    54021   83100      0    1.71e+00    0    1.20e+00
2006 10 13  2310    54021   83400      0    1.67e+00    0    1.15e+00
2006 10 13  2315    54021   83700      0    1.67e+00    0    1.17e+00
2006 10 13  2320    54021   84000      0    1.65e+00    0    1.16e+00
2006 10 13  2325    54021   84300      0    1.69e+00    0    1.20e+00
2006 10 13  2330    54021   84600      0    1.68e+00    0    1.17e+00
2006 10 13  2335    54021   84900      0    1.69e+00    0    1.19e+00
2006 10 13  2340    54021   85200      0    1.67e+00    0    1.17e+00
2006 10 13  2345    54021   85500      0    1.70e+00    0    1.20e+00
2006 10 13  2350    54021   85800      0    1.70e+00    0    1.19e+00
2006 10 13  2355    54021   86100      0    1.69e+00    0    1.18e+00
