:Data_list: 20060914_ace_sis_5m.txt
:Created: 2006 Sep 15 0011 UT
# Prepared by the U.S. Dept. of Commerce, NOAA, Space Environment Center.
# Please send comments and suggestions to SEC.Webmaster@noaa.gov 
# 
# Units: proton flux p/cs2-sec-ster
# Status(S): 0 = nominal data, 1 to 8 = bad data record, 9 = no data
# Missing data values: -1.00e+05
# Source: ACE Satellite - Solar Isotope Spectrometer
#
# 5-minute averaged Real-time Integral Flux of High-energy Solar Protons
# 
#                 Modified Seconds
# UT Date   Time   Julian  of the      ---- Integral Proton Flux ----
# YR MO DA  HHMM     Day     Day       S    > 10 MeV    S    > 30 MeV
#--------------------------------------------------------------------
2006 09 14  0000    53992       0      9   -1.00e+05    9   -1.00e+05
2006 09 14  0005    53992     300      9   -1.00e+05    9   -1.00e+05
2006 09 14  0010    53992     600      9   -1.00e+05    9   -1.00e+05
2006 09 14  0015    53992     900      9   -1.00e+05    9   -1.00e+05
2006 09 14  0020    53992    1200      9   -1.00e+05    9   -1.00e+05
2006 09 14  0025    53992    1500      9   -1.00e+05    9   -1.00e+05
2006 09 14  0030    53992    1800      9   -1.00e+05    9   -1.00e+05
2006 09 14  0035    53992    2100      9   -1.00e+05    9   -1.00e+05
2006 09 14  0040    53992    2400      9   -1.00e+05    9   -1.00e+05
2006 09 14  0045    53992    2700      9   -1.00e+05    9   -1.00e+05
2006 09 14  0050    53992    3000      9   -1.00e+05    9   -1.00e+05
2006 09 14  0055    53992    3300      9   -1.00e+05    9   -1.00e+05
2006 09 14  0100    53992    3600      9   -1.00e+05    9   -1.00e+05
2006 09 14  0105    53992    3900      0    1.64e+00    0    1.12e+00
2006 09 14  0110    53992    4200      0    1.66e+00    0    1.17e+00
2006 09 14  0115    53992    4500      0    1.66e+00    0    1.16e+00
2006 09 14  0120    53992    4800      0    1.68e+00    0    1.18e+00
2006 09 14  0125    53992    5100      0    1.64e+00    0    1.15e+00
2006 09 14  0130    53992    5400      0    1.66e+00    0    1.16e+00
2006 09 14  0135    53992    5700      0    1.65e+00    0    1.16e+00
2006 09 14  0140    53992    6000      0    1.66e+00    0    1.16e+00
2006 09 14  0145    53992    6300      0    1.67e+00    0    1.17e+00
2006 09 14  0150    53992    6600      0    1.66e+00    0    1.15e+00
2006 09 14  0155    53992    6900      0    1.67e+00    0    1.17e+00
2006 09 14  0200    53992    7200      0    1.70e+00    0    1.21e+00
2006 09 14  0205    53992    7500      0    1.66e+00    0    1.17e+00
2006 09 14  0210    53992    7800      0    1.71e+00    0    1.20e+00
2006 09 14  0215    53992    8100      0    1.67e+00    0    1.17e+00
2006 09 14  0220    53992    8400      0    1.67e+00    0    1.19e+00
2006 09 14  0225    53992    8700      0    1.69e+00    0    1.17e+00
2006 09 14  0230    53992    9000      0    1.69e+00    0    1.19e+00
2006 09 14  0235    53992    9300      0    1.66e+00    0    1.17e+00
2006 09 14  0240    53992    9600      0    1.66e+00    0    1.17e+00
2006 09 14  0245    53992    9900      9   -1.00e+05    9   -1.00e+05
2006 09 14  0250    53992   10200      9   -1.00e+05    9   -1.00e+05
2006 09 14  0255    53992   10500      9   -1.00e+05    9   -1.00e+05
2006 09 14  0300    53992   10800      9   -1.00e+05    9   -1.00e+05
2006 09 14  0305    53992   11100      9   -1.00e+05    9   -1.00e+05
2006 09 14  0310    53992   11400      9   -1.00e+05    9   -1.00e+05
2006 09 14  0315    53992   11700      9   -1.00e+05    9   -1.00e+05
2006 09 14  0320    53992   12000      9   -1.00e+05    9   -1.00e+05
2006 09 14  0325    53992   12300      9   -1.00e+05    9   -1.00e+05
2006 09 14  0330    53992   12600      9   -1.00e+05    9   -1.00e+05
2006 09 14  0335    53992   12900      9   -1.00e+05    9   -1.00e+05
2006 09 14  0340    53992   13200      9   -1.00e+05    9   -1.00e+05
2006 09 14  0345    53992   13500      9   -1.00e+05    9   -1.00e+05
2006 09 14  0350    53992   13800      9   -1.00e+05    9   -1.00e+05
2006 09 14  0355    53992   14100      9   -1.00e+05    9   -1.00e+05
2006 09 14  0400    53992   14400      9   -1.00e+05    9   -1.00e+05
2006 09 14  0405    53992   14700      0    1.67e+00    0    1.17e+00
2006 09 14  0410    53992   15000      0    1.70e+00    0    1.20e+00
2006 09 14  0415    53992   15300      0    1.68e+00    0    1.19e+00
2006 09 14  0420    53992   15600      0    1.69e+00    0    1.18e+00
2006 09 14  0425    53992   15900      0    1.70e+00    0    1.18e+00
2006 09 14  0430    53992   16200      0    1.69e+00    0    1.19e+00
2006 09 14  0435    53992   16500      0    1.66e+00    0    1.17e+00
2006 09 14  0440    53992   16800      0    1.71e+00    0    1.20e+00
2006 09 14  0445    53992   17100      0    1.69e+00    0    1.18e+00
2006 09 14  0450    53992   17400      0    1.71e+00    0    1.21e+00
2006 09 14  0455    53992   17700      0    1.66e+00    0    1.17e+00
2006 09 14  0500    53992   18000      0    1.68e+00    0    1.19e+00
2006 09 14  0505    53992   18300      0    1.70e+00    0    1.19e+00
2006 09 14  0510    53992   18600      0    1.70e+00    0    1.20e+00
2006 09 14  0515    53992   18900      0    1.67e+00    0    1.16e+00
2006 09 14  0520    53992   19200      0    1.71e+00    0    1.19e+00
2006 09 14  0525    53992   19500      9   -1.00e+05    9   -1.00e+05
2006 09 14  0530    53992   19800      9   -1.00e+05    9   -1.00e+05
2006 09 14  0535    53992   20100      9   -1.00e+05    9   -1.00e+05
2006 09 14  0540    53992   20400      9   -1.00e+05    9   -1.00e+05
2006 09 14  0545    53992   20700      9   -1.00e+05    9   -1.00e+05
2006 09 14  0550    53992   21000      9   -1.00e+05    9   -1.00e+05
2006 09 14  0555    53992   21300      9   -1.00e+05    9   -1.00e+05
2006 09 14  0600    53992   21600      9   -1.00e+05    9   -1.00e+05
2006 09 14  0605    53992   21900      9   -1.00e+05    9   -1.00e+05
2006 09 14  0610    53992   22200      9   -1.00e+05    9   -1.00e+05
2006 09 14  0615    53992   22500      9   -1.00e+05    9   -1.00e+05
2006 09 14  0620    53992   22800      9   -1.00e+05    9   -1.00e+05
2006 09 14  0625    53992   23100      9   -1.00e+05    9   -1.00e+05
2006 09 14  0630    53992   23400      9   -1.00e+05    9   -1.00e+05
2006 09 14  0635    53992   23700      9   -1.00e+05    9   -1.00e+05
2006 09 14  0640    53992   24000      9   -1.00e+05    9   -1.00e+05
2006 09 14  0645    53992   24300      9   -1.00e+05    9   -1.00e+05
2006 09 14  0650    53992   24600      0    1.68e+00    0    1.18e+00
2006 09 14  0655    53992   24900      0    1.67e+00    0    1.17e+00
2006 09 14  0700    53992   25200      0    1.69e+00    0    1.18e+00
2006 09 14  0705    53992   25500      0    1.71e+00    0    1.19e+00
2006 09 14  0710    53992   25800      0    1.67e+00    0    1.17e+00
2006 09 14  0715    53992   26100      0    1.70e+00    0    1.20e+00
2006 09 14  0720    53992   26400      0    1.68e+00    0    1.18e+00
2006 09 14  0725    53992   26700      0    1.69e+00    0    1.18e+00
2006 09 14  0730    53992   27000      0    1.66e+00    0    1.15e+00
2006 09 14  0735    53992   27300      0    1.68e+00    0    1.16e+00
2006 09 14  0740    53992   27600      0    1.66e+00    0    1.17e+00
2006 09 14  0745    53992   27900      0    1.72e+00    0    1.21e+00
2006 09 14  0750    53992   28200      0    1.70e+00    0    1.19e+00
2006 09 14  0755    53992   28500      0    1.69e+00    0    1.18e+00
2006 09 14  0800    53992   28800      0    1.71e+00    0    1.20e+00
2006 09 14  0805    53992   29100      0    1.68e+00    0    1.17e+00
2006 09 14  0810    53992   29400      0    1.69e+00    0    1.18e+00
2006 09 14  0815    53992   29700      0    1.67e+00    0    1.16e+00
2006 09 14  0820    53992   30000      0    1.66e+00    0    1.16e+00
2006 09 14  0825    53992   30300      0    1.66e+00    0    1.17e+00
2006 09 14  0830    53992   30600      0    1.67e+00    0    1.19e+00
2006 09 14  0835    53992   30900      0    1.68e+00    0    1.17e+00
2006 09 14  0840    53992   31200      0    1.66e+00    0    1.17e+00
2006 09 14  0845    53992   31500      0    1.71e+00    0    1.20e+00
2006 09 14  0850    53992   31800      0    1.71e+00    0    1.22e+00
2006 09 14  0855    53992   32100      0    1.66e+00    0    1.15e+00
2006 09 14  0900    53992   32400      0    1.70e+00    0    1.19e+00
2006 09 14  0905    53992   32700      0    1.71e+00    0    1.20e+00
2006 09 14  0910    53992   33000      0    1.72e+00    0    1.21e+00
2006 09 14  0915    53992   33300      0    1.72e+00    0    1.21e+00
2006 09 14  0920    53992   33600      0    1.66e+00    0    1.15e+00
2006 09 14  0925    53992   33900      0    1.69e+00    0    1.19e+00
2006 09 14  0930    53992   34200      0    1.67e+00    0    1.17e+00
2006 09 14  0935    53992   34500      0    1.68e+00    0    1.17e+00
2006 09 14  0940    53992   34800      0    1.66e+00    0    1.17e+00
2006 09 14  0945    53992   35100      0    1.69e+00    0    1.19e+00
2006 09 14  0950    53992   35400      0    1.68e+00    0    1.18e+00
2006 09 14  0955    53992   35700      0    1.68e+00    0    1.18e+00
2006 09 14  1000    53992   36000      0    1.71e+00    0    1.20e+00
2006 09 14  1005    53992   36300      0    1.70e+00    0    1.18e+00
2006 09 14  1010    53992   36600      0    1.64e+00    0    1.15e+00
2006 09 14  1015    53992   36900      0    1.68e+00    0    1.18e+00
2006 09 14  1020    53992   37200      0    1.67e+00    0    1.17e+00
2006 09 14  1025    53992   37500      0    1.70e+00    0    1.19e+00
2006 09 14  1030    53992   37800      0    1.69e+00    0    1.19e+00
2006 09 14  1035    53992   38100      0    1.68e+00    0    1.19e+00
2006 09 14  1040    53992   38400      0    1.67e+00    0    1.18e+00
2006 09 14  1045    53992   38700      0    1.73e+00    0    1.22e+00
2006 09 14  1050    53992   39000      0    1.69e+00    0    1.19e+00
2006 09 14  1055    53992   39300      0    1.69e+00    0    1.18e+00
2006 09 14  1100    53992   39600      0    1.68e+00    0    1.19e+00
2006 09 14  1105    53992   39900      0    1.63e+00    0    1.14e+00
2006 09 14  1110    53992   40200      0    1.64e+00    0    1.15e+00
2006 09 14  1115    53992   40500      0    1.66e+00    0    1.16e+00
2006 09 14  1120    53992   40800      0    1.66e+00    0    1.17e+00
2006 09 14  1125    53992   41100      0    1.67e+00    0    1.17e+00
2006 09 14  1130    53992   41400      0    1.69e+00    0    1.18e+00
2006 09 14  1135    53992   41700      0    1.66e+00    0    1.17e+00
2006 09 14  1140    53992   42000      0    1.64e+00    0    1.13e+00
2006 09 14  1145    53992   42300      0    1.69e+00    0    1.17e+00
2006 09 14  1150    53992   42600      0    1.68e+00    0    1.18e+00
2006 09 14  1155    53992   42900      0    1.69e+00    0    1.18e+00
2006 09 14  1200    53992   43200      0    1.69e+00    0    1.20e+00
2006 09 14  1205    53992   43500      0    1.64e+00    0    1.15e+00
2006 09 14  1210    53992   43800      0    1.66e+00    0    1.16e+00
2006 09 14  1215    53992   44100      0    1.69e+00    0    1.18e+00
2006 09 14  1220    53992   44400      0    1.70e+00    0    1.18e+00
2006 09 14  1225    53992   44700      0    1.69e+00    0    1.18e+00
2006 09 14  1230    53992   45000      0    1.70e+00    0    1.20e+00
2006 09 14  1235    53992   45300      0    1.69e+00    0    1.17e+00
2006 09 14  1240    53992   45600      0    1.72e+00    0    1.21e+00
2006 09 14  1245    53992   45900      0    1.64e+00    0    1.15e+00
2006 09 14  1250    53992   46200      0    1.71e+00    0    1.20e+00
2006 09 14  1255    53992   46500      0    1.68e+00    0    1.19e+00
2006 09 14  1300    53992   46800      0    1.64e+00    0    1.15e+00
2006 09 14  1305    53992   47100      0    1.70e+00    0    1.19e+00
2006 09 14  1310    53992   47400      0    1.69e+00    0    1.18e+00
2006 09 14  1315    53992   47700      0    1.69e+00    0    1.19e+00
2006 09 14  1320    53992   48000      0    1.67e+00    0    1.18e+00
2006 09 14  1325    53992   48300      0    1.69e+00    0    1.20e+00
2006 09 14  1330    53992   48600      0    1.72e+00    0    1.20e+00
2006 09 14  1335    53992   48900      0    1.69e+00    0    1.18e+00
2006 09 14  1340    53992   49200      0    1.69e+00    0    1.18e+00
2006 09 14  1345    53992   49500      0    1.65e+00    0    1.16e+00
2006 09 14  1350    53992   49800      0    1.54e+00    0    1.08e+00
2006 09 14  1355    53992   50100      0    1.69e+00    0    1.18e+00
2006 09 14  1400    53992   50400      0    1.75e+00    0    1.23e+00
2006 09 14  1405    53992   50700      0    1.70e+00    0    1.19e+00
2006 09 14  1410    53992   51000      0    1.67e+00    0    1.18e+00
2006 09 14  1415    53992   51300      0    1.70e+00    0    1.18e+00
2006 09 14  1420    53992   51600      0    1.67e+00    0    1.18e+00
2006 09 14  1425    53992   51900      0    1.72e+00    0    1.20e+00
2006 09 14  1430    53992   52200      0    1.65e+00    0    1.16e+00
2006 09 14  1435    53992   52500      0    1.66e+00    0    1.17e+00
2006 09 14  1440    53992   52800      0    1.67e+00    0    1.15e+00
2006 09 14  1445    53992   53100      0    1.67e+00    0    1.17e+00
2006 09 14  1450    53992   53400      0    1.66e+00    0    1.16e+00
2006 09 14  1455    53992   53700      0    1.65e+00    0    1.18e+00
2006 09 14  1500    53992   54000      0    1.67e+00    0    1.17e+00
2006 09 14  1505    53992   54300      0    1.64e+00    0    1.14e+00
2006 09 14  1510    53992   54600      0    1.67e+00    0    1.15e+00
2006 09 14  1515    53992   54900      0    1.67e+00    0    1.18e+00
2006 09 14  1520    53992   55200      0    1.66e+00    0    1.17e+00
2006 09 14  1525    53992   55500      0    1.67e+00    0    1.18e+00
2006 09 14  1530    53992   55800      0    1.67e+00    0    1.17e+00
2006 09 14  1535    53992   56100      0    1.69e+00    0    1.18e+00
2006 09 14  1540    53992   56400      0    1.67e+00    0    1.17e+00
2006 09 14  1545    53992   56700      0    1.69e+00    0    1.19e+00
2006 09 14  1550    53992   57000      0    1.66e+00    0    1.17e+00
2006 09 14  1555    53992   57300      0    1.69e+00    0    1.18e+00
2006 09 14  1600    53992   57600      0    1.66e+00    0    1.15e+00
2006 09 14  1605    53992   57900      0    1.70e+00    0    1.21e+00
2006 09 14  1610    53992   58200      0    1.71e+00    0    1.20e+00
2006 09 14  1615    53992   58500      0    1.69e+00    0    1.19e+00
2006 09 14  1620    53992   58800      0    1.70e+00    0    1.19e+00
2006 09 14  1625    53992   59100      0    1.71e+00    0    1.20e+00
2006 09 14  1630    53992   59400      0    1.70e+00    0    1.18e+00
2006 09 14  1635    53992   59700      0    1.69e+00    0    1.18e+00
2006 09 14  1640    53992   60000      0    1.69e+00    0    1.18e+00
2006 09 14  1645    53992   60300      0    1.66e+00    0    1.16e+00
2006 09 14  1650    53992   60600      0    1.67e+00    0    1.17e+00
2006 09 14  1655    53992   60900      0    1.69e+00    0    1.18e+00
2006 09 14  1700    53992   61200      0    1.66e+00    0    1.16e+00
2006 09 14  1705    53992   61500      0    1.71e+00    0    1.19e+00
2006 09 14  1710    53992   61800      0    1.65e+00    0    1.15e+00
2006 09 14  1715    53992   62100      0    1.65e+00    0    1.16e+00
2006 09 14  1720    53992   62400      0    1.68e+00    0    1.16e+00
2006 09 14  1725    53992   62700      0    1.68e+00    0    1.17e+00
2006 09 14  1730    53992   63000      0    1.63e+00    0    1.15e+00
2006 09 14  1735    53992   63300      0    1.59e+00    0    1.13e+00
2006 09 14  1740    53992   63600      0    1.64e+00    0    1.15e+00
2006 09 14  1745    53992   63900      0    1.66e+00    0    1.17e+00
2006 09 14  1750    53992   64200      0    1.65e+00    0    1.15e+00
2006 09 14  1755    53992   64500      0    1.67e+00    0    1.17e+00
2006 09 14  1800    53992   64800      0    1.65e+00    0    1.16e+00
2006 09 14  1805    53992   65100      0    1.66e+00    0    1.15e+00
2006 09 14  1810    53992   65400      0    1.71e+00    0    1.19e+00
2006 09 14  1815    53992   65700      0    1.63e+00    0    1.14e+00
2006 09 14  1820    53992   66000      0    1.72e+00    0    1.21e+00
2006 09 14  1825    53992   66300      0    1.72e+00    0    1.20e+00
2006 09 14  1830    53992   66600      0    1.69e+00    0    1.18e+00
2006 09 14  1835    53992   66900      0    1.65e+00    0    1.15e+00
2006 09 14  1840    53992   67200      0    1.67e+00    0    1.17e+00
2006 09 14  1845    53992   67500      0    1.73e+00    0    1.21e+00
2006 09 14  1850    53992   67800      0    1.69e+00    0    1.20e+00
2006 09 14  1855    53992   68100      0    1.70e+00    0    1.19e+00
2006 09 14  1900    53992   68400      0    1.69e+00    0    1.18e+00
2006 09 14  1905    53992   68700      0    1.75e+00    0    1.24e+00
2006 09 14  1910    53992   69000      0    1.63e+00    0    1.15e+00
2006 09 14  1915    53992   69300      0    1.68e+00    0    1.17e+00
2006 09 14  1920    53992   69600      0    1.68e+00    0    1.17e+00
2006 09 14  1925    53992   69900      0    1.64e+00    0    1.13e+00
2006 09 14  1930    53992   70200      0    1.71e+00    0    1.19e+00
2006 09 14  1935    53992   70500      0    1.69e+00    0    1.19e+00
2006 09 14  1940    53992   70800      0    1.70e+00    0    1.19e+00
2006 09 14  1945    53992   71100      0    1.66e+00    0    1.18e+00
2006 09 14  1950    53992   71400      0    1.68e+00    0    1.16e+00
2006 09 14  1955    53992   71700      0    1.69e+00    0    1.19e+00
2006 09 14  2000    53992   72000      0    1.71e+00    0    1.20e+00
2006 09 14  2005    53992   72300      0    1.72e+00    0    1.20e+00
2006 09 14  2010    53992   72600      0    1.67e+00    0    1.18e+00
2006 09 14  2015    53992   72900      0    1.73e+00    0    1.21e+00
2006 09 14  2020    53992   73200      0    1.69e+00    0    1.16e+00
2006 09 14  2025    53992   73500      9   -1.00e+05    9   -1.00e+05
2006 09 14  2030    53992   73800      9   -1.00e+05    9   -1.00e+05
2006 09 14  2035    53992   74100      9   -1.00e+05    9   -1.00e+05
2006 09 14  2040    53992   74400      9   -1.00e+05    9   -1.00e+05
2006 09 14  2045    53992   74700      0    1.70e+00    0    1.19e+00
2006 09 14  2050    53992   75000      0    1.65e+00    0    1.15e+00
2006 09 14  2055    53992   75300      0    1.67e+00    0    1.16e+00
2006 09 14  2100    53992   75600      0    1.73e+00    0    1.23e+00
2006 09 14  2105    53992   75900      0    1.74e+00    0    1.22e+00
2006 09 14  2110    53992   76200      0    1.71e+00    0    1.20e+00
2006 09 14  2115    53992   76500      0    1.72e+00    0    1.21e+00
2006 09 14  2120    53992   76800      0    1.69e+00    0    1.19e+00
2006 09 14  2125    53992   77100      0    1.71e+00    0    1.21e+00
2006 09 14  2130    53992   77400      0    1.70e+00    0    1.20e+00
2006 09 14  2135    53992   77700      0    1.68e+00    0    1.19e+00
2006 09 14  2140    53992   78000      0    1.72e+00    0    1.21e+00
2006 09 14  2145    53992   78300      0    1.71e+00    0    1.20e+00
2006 09 14  2150    53992   78600      0    1.68e+00    0    1.18e+00
2006 09 14  2155    53992   78900      0    1.72e+00    0    1.20e+00
2006 09 14  2200    53992   79200      0    1.70e+00    0    1.19e+00
2006 09 14  2205    53992   79500      0    1.68e+00    0    1.18e+00
2006 09 14  2210    53992   79800      0    1.66e+00    0    1.17e+00
2006 09 14  2215    53992   80100      0    1.68e+00    0    1.18e+00
2006 09 14  2220    53992   80400      0    1.74e+00    0    1.24e+00
2006 09 14  2225    53992   80700      0    1.69e+00    0    1.18e+00
2006 09 14  2230    53992   81000      0    1.72e+00    0    1.20e+00
2006 09 14  2235    53992   81300      0    1.67e+00    0    1.17e+00
2006 09 14  2240    53992   81600      0    1.65e+00    0    1.15e+00
2006 09 14  2245    53992   81900      0    1.73e+00    0    1.21e+00
2006 09 14  2250    53992   82200      0    1.71e+00    0    1.20e+00
2006 09 14  2255    53992   82500      0    1.73e+00    0    1.21e+00
2006 09 14  2300    53992   82800      0    1.69e+00    0    1.18e+00
2006 09 14  2305    53992   83100      0    1.67e+00    0    1.18e+00
2006 09 14  2310    53992   83400      0    1.67e+00    0    1.17e+00
2006 09 14  2315    53992   83700      0    1.69e+00    0    1.18e+00
2006 09 14  2320    53992   84000      0    1.68e+00    0    1.16e+00
2006 09 14  2325    53992   84300      0    1.69e+00    0    1.19e+00
2006 09 14  2330    53992   84600      0    1.70e+00    0    1.20e+00
2006 09 14  2335    53992   84900      0    1.67e+00    0    1.18e+00
2006 09 14  2340    53992   85200      9   -1.00e+05    9   -1.00e+05
2006 09 14  2345    53992   85500      0    1.67e+00    0    1.15e+00
2006 09 14  2350    53992   85800      0    1.70e+00    0    1.19e+00
2006 09 14  2355    53992   86100      0    1.73e+00    0    1.22e+00
