:Data_list: 20061103_ace_sis_5m.txt
:Created: 2006 Nov 04 0011 UT
# Prepared by the U.S. Dept. of Commerce, NOAA, Space Environment Center.
# Please send comments and suggestions to SEC.Webmaster@noaa.gov 
# 
# Units: proton flux p/cs2-sec-ster
# Status(S): 0 = nominal data, 1 to 8 = bad data record, 9 = no data
# Missing data values: -1.00e+05
# Source: ACE Satellite - Solar Isotope Spectrometer
#
# 5-minute averaged Real-time Integral Flux of High-energy Solar Protons
# 
#                 Modified Seconds
# UT Date   Time   Julian  of the      ---- Integral Proton Flux ----
# YR MO DA  HHMM     Day     Day       S    > 10 MeV    S    > 30 MeV
#--------------------------------------------------------------------
2006 11 03  0000    54042       0      0    1.75e+00    0    1.22e+00
2006 11 03  0005    54042     300      0    1.74e+00    0    1.22e+00
2006 11 03  0010    54042     600      0    1.83e+00    0    1.31e+00
2006 11 03  0015    54042     900      0    1.72e+00    0    1.20e+00
2006 11 03  0020    54042    1200      0    1.77e+00    0    1.24e+00
2006 11 03  0025    54042    1500      0    1.68e+00    0    1.18e+00
2006 11 03  0030    54042    1800      0    1.75e+00    0    1.24e+00
2006 11 03  0035    54042    2100      0    1.74e+00    0    1.22e+00
2006 11 03  0040    54042    2400      0    1.72e+00    0    1.20e+00
2006 11 03  0045    54042    2700      0    1.68e+00    0    1.19e+00
2006 11 03  0050    54042    3000      0    1.71e+00    0    1.20e+00
2006 11 03  0055    54042    3300      0    1.73e+00    0    1.21e+00
2006 11 03  0100    54042    3600      0    1.70e+00    0    1.19e+00
2006 11 03  0105    54042    3900      0    1.70e+00    0    1.19e+00
2006 11 03  0110    54042    4200      0    1.70e+00    0    1.21e+00
2006 11 03  0115    54042    4500      0    1.76e+00    0    1.24e+00
2006 11 03  0120    54042    4800      0    1.72e+00    0    1.20e+00
2006 11 03  0125    54042    5100      0    1.70e+00    0    1.19e+00
2006 11 03  0130    54042    5400      0    1.73e+00    0    1.21e+00
2006 11 03  0135    54042    5700      0    1.68e+00    0    1.18e+00
2006 11 03  0140    54042    6000      0    1.72e+00    0    1.22e+00
2006 11 03  0145    54042    6300      0    1.71e+00    0    1.19e+00
2006 11 03  0150    54042    6600      0    1.78e+00    0    1.25e+00
2006 11 03  0155    54042    6900      0    1.74e+00    0    1.21e+00
2006 11 03  0200    54042    7200      0    1.77e+00    0    1.23e+00
2006 11 03  0205    54042    7500      0    1.70e+00    0    1.19e+00
2006 11 03  0210    54042    7800      0    1.70e+00    0    1.19e+00
2006 11 03  0215    54042    8100      0    1.76e+00    0    1.23e+00
2006 11 03  0220    54042    8400      0    1.68e+00    0    1.19e+00
2006 11 03  0225    54042    8700      0    1.70e+00    0    1.19e+00
2006 11 03  0230    54042    9000      0    1.73e+00    0    1.22e+00
2006 11 03  0235    54042    9300      0    1.72e+00    0    1.21e+00
2006 11 03  0240    54042    9600      0    1.76e+00    0    1.24e+00
2006 11 03  0245    54042    9900      0    1.69e+00    0    1.18e+00
2006 11 03  0250    54042   10200      0    1.74e+00    0    1.22e+00
2006 11 03  0255    54042   10500      0    1.71e+00    0    1.20e+00
2006 11 03  0300    54042   10800      0    1.71e+00    0    1.19e+00
2006 11 03  0305    54042   11100      0    1.73e+00    0    1.22e+00
2006 11 03  0310    54042   11400      0    1.74e+00    0    1.21e+00
2006 11 03  0315    54042   11700      0    1.72e+00    0    1.22e+00
2006 11 03  0320    54042   12000      0    1.75e+00    0    1.23e+00
2006 11 03  0325    54042   12300      0    1.77e+00    0    1.24e+00
2006 11 03  0330    54042   12600      0    1.74e+00    0    1.23e+00
2006 11 03  0335    54042   12900      0    1.76e+00    0    1.25e+00
2006 11 03  0340    54042   13200      0    1.76e+00    0    1.23e+00
2006 11 03  0345    54042   13500      0    1.77e+00    0    1.23e+00
2006 11 03  0350    54042   13800      0    1.76e+00    0    1.23e+00
2006 11 03  0355    54042   14100      0    1.73e+00    0    1.21e+00
2006 11 03  0400    54042   14400      0    1.76e+00    0    1.24e+00
2006 11 03  0405    54042   14700      0    1.73e+00    0    1.22e+00
2006 11 03  0410    54042   15000      0    1.73e+00    0    1.21e+00
2006 11 03  0415    54042   15300      0    1.73e+00    0    1.22e+00
2006 11 03  0420    54042   15600      0    1.73e+00    0    1.21e+00
2006 11 03  0425    54042   15900      0    1.74e+00    0    1.22e+00
2006 11 03  0430    54042   16200      0    1.71e+00    0    1.20e+00
2006 11 03  0435    54042   16500      0    1.68e+00    0    1.18e+00
2006 11 03  0440    54042   16800      0    1.68e+00    0    1.18e+00
2006 11 03  0445    54042   17100      0    1.71e+00    0    1.21e+00
2006 11 03  0450    54042   17400      0    1.72e+00    0    1.20e+00
2006 11 03  0455    54042   17700      0    1.76e+00    0    1.24e+00
2006 11 03  0500    54042   18000      0    1.73e+00    0    1.22e+00
2006 11 03  0505    54042   18300      0    1.74e+00    0    1.21e+00
2006 11 03  0510    54042   18600      0    1.72e+00    0    1.19e+00
2006 11 03  0515    54042   18900      0    1.73e+00    0    1.19e+00
2006 11 03  0520    54042   19200      0    1.75e+00    0    1.23e+00
2006 11 03  0525    54042   19500      0    1.76e+00    0    1.23e+00
2006 11 03  0530    54042   19800      0    1.73e+00    0    1.21e+00
2006 11 03  0535    54042   20100      0    1.75e+00    0    1.22e+00
2006 11 03  0540    54042   20400      0    1.75e+00    0    1.22e+00
2006 11 03  0545    54042   20700      0    1.71e+00    0    1.19e+00
2006 11 03  0550    54042   21000      0    1.75e+00    0    1.24e+00
2006 11 03  0555    54042   21300      0    1.74e+00    0    1.22e+00
2006 11 03  0600    54042   21600      0    1.75e+00    0    1.23e+00
2006 11 03  0605    54042   21900      0    1.75e+00    0    1.22e+00
2006 11 03  0610    54042   22200      0    1.74e+00    0    1.23e+00
2006 11 03  0615    54042   22500      0    1.73e+00    0    1.22e+00
2006 11 03  0620    54042   22800      0    1.70e+00    0    1.19e+00
2006 11 03  0625    54042   23100      0    1.75e+00    0    1.23e+00
2006 11 03  0630    54042   23400      0    1.77e+00    0    1.23e+00
2006 11 03  0635    54042   23700      0    1.75e+00    0    1.22e+00
2006 11 03  0640    54042   24000      0    1.75e+00    0    1.23e+00
2006 11 03  0645    54042   24300      0    1.75e+00    0    1.23e+00
2006 11 03  0650    54042   24600      0    1.71e+00    0    1.20e+00
2006 11 03  0655    54042   24900      0    1.69e+00    0    1.18e+00
2006 11 03  0700    54042   25200      9   -1.00e+05    9   -1.00e+05
2006 11 03  0705    54042   25500      9   -1.00e+05    9   -1.00e+05
2006 11 03  0710    54042   25800      9   -1.00e+05    9   -1.00e+05
2006 11 03  0715    54042   26100      9   -1.00e+05    9   -1.00e+05
2006 11 03  0720    54042   26400      0    1.68e+00    0    1.18e+00
2006 11 03  0725    54042   26700      0    1.73e+00    0    1.22e+00
2006 11 03  0730    54042   27000      0    1.75e+00    0    1.23e+00
2006 11 03  0735    54042   27300      0    1.78e+00    0    1.26e+00
2006 11 03  0740    54042   27600      0    1.74e+00    0    1.22e+00
2006 11 03  0745    54042   27900      0    1.69e+00    0    1.18e+00
2006 11 03  0750    54042   28200      0    1.64e+00    0    1.15e+00
2006 11 03  0755    54042   28500      0    1.76e+00    0    1.24e+00
2006 11 03  0800    54042   28800      0    1.75e+00    0    1.25e+00
2006 11 03  0805    54042   29100      0    1.71e+00    0    1.19e+00
2006 11 03  0810    54042   29400      0    1.75e+00    0    1.23e+00
2006 11 03  0815    54042   29700      0    1.73e+00    0    1.21e+00
2006 11 03  0820    54042   30000      0    1.72e+00    0    1.21e+00
2006 11 03  0825    54042   30300      0    1.75e+00    0    1.22e+00
2006 11 03  0830    54042   30600      0    1.73e+00    0    1.22e+00
2006 11 03  0835    54042   30900      0    1.73e+00    0    1.23e+00
2006 11 03  0840    54042   31200      0    1.72e+00    0    1.21e+00
2006 11 03  0845    54042   31500      0    1.63e+00    0    1.14e+00
2006 11 03  0850    54042   31800      0    1.77e+00    0    1.26e+00
2006 11 03  0855    54042   32100      0    1.73e+00    0    1.21e+00
2006 11 03  0900    54042   32400      0    1.74e+00    0    1.22e+00
2006 11 03  0905    54042   32700      0    1.76e+00    0    1.25e+00
2006 11 03  0910    54042   33000      0    1.74e+00    0    1.23e+00
2006 11 03  0915    54042   33300      0    1.73e+00    0    1.21e+00
2006 11 03  0920    54042   33600      0    1.75e+00    0    1.23e+00
2006 11 03  0925    54042   33900      0    1.74e+00    0    1.21e+00
2006 11 03  0930    54042   34200      0    1.76e+00    0    1.23e+00
2006 11 03  0935    54042   34500      0    1.76e+00    0    1.23e+00
2006 11 03  0940    54042   34800      0    1.73e+00    0    1.22e+00
2006 11 03  0945    54042   35100      0    1.76e+00    0    1.24e+00
2006 11 03  0950    54042   35400      0    1.72e+00    0    1.20e+00
2006 11 03  0955    54042   35700      0    1.73e+00    0    1.22e+00
2006 11 03  1000    54042   36000      0    1.74e+00    0    1.22e+00
2006 11 03  1005    54042   36300      0    1.74e+00    0    1.21e+00
2006 11 03  1010    54042   36600      0    1.74e+00    0    1.21e+00
2006 11 03  1015    54042   36900      0    1.77e+00    0    1.24e+00
2006 11 03  1020    54042   37200      0    1.75e+00    0    1.22e+00
2006 11 03  1025    54042   37500      0    1.70e+00    0    1.19e+00
2006 11 03  1030    54042   37800      0    1.72e+00    0    1.20e+00
2006 11 03  1035    54042   38100      0    1.73e+00    0    1.21e+00
2006 11 03  1040    54042   38400      0    1.73e+00    0    1.20e+00
2006 11 03  1045    54042   38700      0    1.72e+00    0    1.21e+00
2006 11 03  1050    54042   39000      0    1.71e+00    0    1.20e+00
2006 11 03  1055    54042   39300      0    1.73e+00    0    1.20e+00
2006 11 03  1100    54042   39600      0    1.73e+00    0    1.22e+00
2006 11 03  1105    54042   39900      0    1.74e+00    0    1.23e+00
2006 11 03  1110    54042   40200      0    1.72e+00    0    1.20e+00
2006 11 03  1115    54042   40500      0    1.73e+00    0    1.21e+00
2006 11 03  1120    54042   40800      0    1.76e+00    0    1.24e+00
2006 11 03  1125    54042   41100      0    1.77e+00    0    1.24e+00
2006 11 03  1130    54042   41400      0    1.71e+00    0    1.21e+00
2006 11 03  1135    54042   41700      0    1.73e+00    0    1.21e+00
2006 11 03  1140    54042   42000      0    1.71e+00    0    1.20e+00
2006 11 03  1145    54042   42300      0    1.70e+00    0    1.20e+00
2006 11 03  1150    54042   42600      0    1.73e+00    0    1.20e+00
2006 11 03  1155    54042   42900      0    1.71e+00    0    1.19e+00
2006 11 03  1200    54042   43200      0    1.73e+00    0    1.22e+00
2006 11 03  1205    54042   43500      0    1.68e+00    0    1.17e+00
2006 11 03  1210    54042   43800      9   -1.00e+05    9   -1.00e+05
2006 11 03  1215    54042   44100      0    1.74e+00    0    1.21e+00
2006 11 03  1220    54042   44400      0    1.62e+00    0    1.14e+00
2006 11 03  1225    54042   44700      0    1.73e+00    0    1.21e+00
2006 11 03  1230    54042   45000      0    1.72e+00    0    1.20e+00
2006 11 03  1235    54042   45300      0    1.71e+00    0    1.21e+00
2006 11 03  1240    54042   45600      0    1.74e+00    0    1.22e+00
2006 11 03  1245    54042   45900      0    1.69e+00    0    1.19e+00
2006 11 03  1250    54042   46200      0    1.72e+00    0    1.20e+00
2006 11 03  1255    54042   46500      0    1.73e+00    0    1.22e+00
2006 11 03  1300    54042   46800      0    1.76e+00    0    1.24e+00
2006 11 03  1305    54042   47100      0    1.73e+00    0    1.21e+00
2006 11 03  1310    54042   47400      0    1.72e+00    0    1.20e+00
2006 11 03  1315    54042   47700      0    1.72e+00    0    1.21e+00
2006 11 03  1320    54042   48000      0    1.71e+00    0    1.19e+00
2006 11 03  1325    54042   48300      0    1.75e+00    0    1.22e+00
2006 11 03  1330    54042   48600      0    1.74e+00    0    1.22e+00
2006 11 03  1335    54042   48900      0    1.72e+00    0    1.20e+00
2006 11 03  1340    54042   49200      0    1.72e+00    0    1.19e+00
2006 11 03  1345    54042   49500      0    1.74e+00    0    1.21e+00
2006 11 03  1350    54042   49800      0    1.72e+00    0    1.22e+00
2006 11 03  1355    54042   50100      0    1.76e+00    0    1.23e+00
2006 11 03  1400    54042   50400      0    1.74e+00    0    1.22e+00
2006 11 03  1405    54042   50700      0    1.75e+00    0    1.23e+00
2006 11 03  1410    54042   51000      0    1.78e+00    0    1.24e+00
2006 11 03  1415    54042   51300      0    1.76e+00    0    1.24e+00
2006 11 03  1420    54042   51600      0    1.72e+00    0    1.21e+00
2006 11 03  1425    54042   51900      0    1.72e+00    0    1.21e+00
2006 11 03  1430    54042   52200      0    1.72e+00    0    1.21e+00
2006 11 03  1435    54042   52500      0    1.70e+00    0    1.20e+00
2006 11 03  1440    54042   52800      0    1.69e+00    0    1.19e+00
2006 11 03  1445    54042   53100      0    1.69e+00    0    1.19e+00
2006 11 03  1450    54042   53400      0    1.73e+00    0    1.21e+00
2006 11 03  1455    54042   53700      0    1.74e+00    0    1.23e+00
2006 11 03  1500    54042   54000      0    1.71e+00    0    1.20e+00
2006 11 03  1505    54042   54300      0    1.72e+00    0    1.20e+00
2006 11 03  1510    54042   54600      0    1.72e+00    0    1.21e+00
2006 11 03  1515    54042   54900      0    1.73e+00    0    1.21e+00
2006 11 03  1520    54042   55200      0    1.74e+00    0    1.22e+00
2006 11 03  1525    54042   55500      0    1.73e+00    0    1.21e+00
2006 11 03  1530    54042   55800      0    1.75e+00    0    1.23e+00
2006 11 03  1535    54042   56100      0    1.74e+00    0    1.23e+00
2006 11 03  1540    54042   56400      0    1.70e+00    0    1.20e+00
2006 11 03  1545    54042   56700      0    1.73e+00    0    1.20e+00
2006 11 03  1550    54042   57000      0    1.71e+00    0    1.20e+00
2006 11 03  1555    54042   57300      0    1.69e+00    0    1.17e+00
2006 11 03  1600    54042   57600      0    1.73e+00    0    1.21e+00
2006 11 03  1605    54042   57900      0    1.73e+00    0    1.21e+00
2006 11 03  1610    54042   58200      0    1.74e+00    0    1.22e+00
2006 11 03  1615    54042   58500      0    1.69e+00    0    1.18e+00
2006 11 03  1620    54042   58800      0    1.69e+00    0    1.18e+00
2006 11 03  1625    54042   59100      0    1.72e+00    0    1.21e+00
2006 11 03  1630    54042   59400      0    1.70e+00    0    1.19e+00
2006 11 03  1635    54042   59700      0    1.71e+00    0    1.19e+00
2006 11 03  1640    54042   60000      0    1.75e+00    0    1.22e+00
2006 11 03  1645    54042   60300      0    1.72e+00    0    1.21e+00
2006 11 03  1650    54042   60600      0    1.72e+00    0    1.20e+00
2006 11 03  1655    54042   60900      0    1.69e+00    0    1.19e+00
2006 11 03  1700    54042   61200      0    1.74e+00    0    1.22e+00
2006 11 03  1705    54042   61500      0    1.69e+00    0    1.19e+00
2006 11 03  1710    54042   61800      0    1.72e+00    0    1.20e+00
2006 11 03  1715    54042   62100      0    1.74e+00    0    1.22e+00
2006 11 03  1720    54042   62400      0    1.71e+00    0    1.20e+00
2006 11 03  1725    54042   62700      0    1.73e+00    0    1.21e+00
2006 11 03  1730    54042   63000      0    1.74e+00    0    1.23e+00
2006 11 03  1735    54042   63300      0    1.69e+00    0    1.18e+00
2006 11 03  1740    54042   63600      0    1.67e+00    0    1.16e+00
2006 11 03  1745    54042   63900      0    1.72e+00    0    1.21e+00
2006 11 03  1750    54042   64200      0    1.73e+00    0    1.21e+00
2006 11 03  1755    54042   64500      0    1.72e+00    0    1.20e+00
2006 11 03  1800    54042   64800      0    1.72e+00    0    1.21e+00
2006 11 03  1805    54042   65100      0    1.71e+00    0    1.21e+00
2006 11 03  1810    54042   65400      0    1.73e+00    0    1.23e+00
2006 11 03  1815    54042   65700      0    1.72e+00    0    1.22e+00
2006 11 03  1820    54042   66000      0    1.77e+00    0    1.24e+00
2006 11 03  1825    54042   66300      0    1.71e+00    0    1.21e+00
2006 11 03  1830    54042   66600      0    1.72e+00    0    1.22e+00
2006 11 03  1835    54042   66900      0    1.71e+00    0    1.20e+00
2006 11 03  1840    54042   67200      0    1.73e+00    0    1.22e+00
2006 11 03  1845    54042   67500      0    1.73e+00    0    1.22e+00
2006 11 03  1850    54042   67800      0    1.72e+00    0    1.22e+00
2006 11 03  1855    54042   68100      0    1.70e+00    0    1.18e+00
2006 11 03  1900    54042   68400      0    1.72e+00    0    1.21e+00
2006 11 03  1905    54042   68700      0    1.73e+00    0    1.21e+00
2006 11 03  1910    54042   69000      0    1.70e+00    0    1.19e+00
2006 11 03  1915    54042   69300      0    1.74e+00    0    1.22e+00
2006 11 03  1920    54042   69600      0    1.72e+00    0    1.21e+00
2006 11 03  1925    54042   69900      0    1.77e+00    0    1.24e+00
2006 11 03  1930    54042   70200      0    1.72e+00    0    1.20e+00
2006 11 03  1935    54042   70500      0    1.71e+00    0    1.20e+00
2006 11 03  1940    54042   70800      0    1.74e+00    0    1.21e+00
2006 11 03  1945    54042   71100      0    1.68e+00    0    1.17e+00
2006 11 03  1950    54042   71400      0    1.73e+00    0    1.23e+00
2006 11 03  1955    54042   71700      0    1.71e+00    0    1.19e+00
2006 11 03  2000    54042   72000      0    1.72e+00    0    1.20e+00
2006 11 03  2005    54042   72300      0    1.70e+00    0    1.19e+00
2006 11 03  2010    54042   72600      0    1.70e+00    0    1.19e+00
2006 11 03  2015    54042   72900      0    1.75e+00    0    1.23e+00
2006 11 03  2020    54042   73200      0    1.77e+00    0    1.23e+00
2006 11 03  2025    54042   73500      0    1.77e+00    0    1.24e+00
2006 11 03  2030    54042   73800      0    1.73e+00    0    1.21e+00
2006 11 03  2035    54042   74100      0    1.73e+00    0    1.20e+00
2006 11 03  2040    54042   74400      0    1.69e+00    0    1.19e+00
2006 11 03  2045    54042   74700      0    1.75e+00    0    1.22e+00
2006 11 03  2050    54042   75000      0    1.69e+00    0    1.19e+00
2006 11 03  2055    54042   75300      0    1.73e+00    0    1.21e+00
2006 11 03  2100    54042   75600      0    1.75e+00    0    1.22e+00
2006 11 03  2105    54042   75900      0    1.72e+00    0    1.21e+00
2006 11 03  2110    54042   76200      0    1.73e+00    0    1.22e+00
2006 11 03  2115    54042   76500      9   -1.00e+05    9   -1.00e+05
2006 11 03  2120    54042   76800      9   -1.00e+05    9   -1.00e+05
2006 11 03  2125    54042   77100      0    1.74e+00    0    1.20e+00
2006 11 03  2130    54042   77400      0    1.76e+00    0    1.23e+00
2006 11 03  2135    54042   77700      0    1.73e+00    0    1.22e+00
2006 11 03  2140    54042   78000      0    1.75e+00    0    1.23e+00
2006 11 03  2145    54042   78300      0    1.70e+00    0    1.19e+00
2006 11 03  2150    54042   78600      0    1.74e+00    0    1.22e+00
2006 11 03  2155    54042   78900      0    1.75e+00    0    1.23e+00
2006 11 03  2200    54042   79200      0    1.68e+00    0    1.19e+00
2006 11 03  2205    54042   79500      0    1.69e+00    0    1.18e+00
2006 11 03  2210    54042   79800      0    1.69e+00    0    1.20e+00
2006 11 03  2215    54042   80100      0    1.74e+00    0    1.22e+00
2006 11 03  2220    54042   80400      0    1.78e+00    0    1.23e+00
2006 11 03  2225    54042   80700      0    1.70e+00    0    1.19e+00
2006 11 03  2230    54042   81000      0    1.70e+00    0    1.19e+00
2006 11 03  2235    54042   81300      0    1.71e+00    0    1.20e+00
2006 11 03  2240    54042   81600      0    1.77e+00    0    1.23e+00
2006 11 03  2245    54042   81900      0    1.67e+00    0    1.16e+00
2006 11 03  2250    54042   82200      0    1.75e+00    0    1.23e+00
2006 11 03  2255    54042   82500      0    1.72e+00    0    1.20e+00
2006 11 03  2300    54042   82800      0    1.74e+00    0    1.23e+00
2006 11 03  2305    54042   83100      0    1.70e+00    0    1.19e+00
2006 11 03  2310    54042   83400      0    1.74e+00    0    1.21e+00
2006 11 03  2315    54042   83700      0    1.71e+00    0    1.20e+00
2006 11 03  2320    54042   84000      0    1.71e+00    0    1.19e+00
2006 11 03  2325    54042   84300      0    1.72e+00    0    1.20e+00
2006 11 03  2330    54042   84600      0    1.68e+00    0    1.18e+00
2006 11 03  2335    54042   84900      0    1.73e+00    0    1.22e+00
2006 11 03  2340    54042   85200      0    1.71e+00    0    1.20e+00
2006 11 03  2345    54042   85500      0    1.72e+00    0    1.22e+00
2006 11 03  2350    54042   85800      0    1.70e+00    0    1.19e+00
2006 11 03  2355    54042   86100      0    1.73e+00    0    1.22e+00
