:Data_list: 20060509_ace_sis_5m.txt
:Created: 2006 May 10 0011 UT
# Prepared by the U.S. Dept. of Commerce, NOAA, Space Environment Center.
# Please send comments and suggestions to SEC.Webmaster@noaa.gov 
# 
# Units: proton flux p/cs2-sec-ster
# Status(S): 0 = nominal data, 1 to 8 = bad data record, 9 = no data
# Missing data values: -1.00e+05
# Source: ACE Satellite - Solar Isotope Spectrometer
#
# 5-minute averaged Real-time Integral Flux of High-energy Solar Protons
# 
#                 Modified Seconds
# UT Date   Time   Julian  of the      ---- Integral Proton Flux ----
# YR MO DA  HHMM     Day     Day       S    > 10 MeV    S    > 30 MeV
#--------------------------------------------------------------------
2006 05 09  0000    53864       0      0    1.58e+00    0    1.12e+00
2006 05 09  0005    53864     300      0    1.59e+00    0    1.12e+00
2006 05 09  0010    53864     600      0    1.55e+00    0    1.08e+00
2006 05 09  0015    53864     900      0    1.56e+00    0    1.09e+00
2006 05 09  0020    53864    1200      0    1.61e+00    0    1.13e+00
2006 05 09  0025    53864    1500      0    1.58e+00    0    1.11e+00
2006 05 09  0030    53864    1800      0    1.58e+00    0    1.11e+00
2006 05 09  0035    53864    2100      0    1.58e+00    0    1.11e+00
2006 05 09  0040    53864    2400      0    1.61e+00    0    1.12e+00
2006 05 09  0045    53864    2700      0    1.60e+00    0    1.12e+00
2006 05 09  0050    53864    3000      0    1.59e+00    0    1.12e+00
2006 05 09  0055    53864    3300      0    1.57e+00    0    1.09e+00
2006 05 09  0100    53864    3600      0    1.59e+00    0    1.13e+00
2006 05 09  0105    53864    3900      0    1.59e+00    0    1.11e+00
2006 05 09  0110    53864    4200      0    1.60e+00    0    1.11e+00
2006 05 09  0115    53864    4500      0    1.56e+00    0    1.10e+00
2006 05 09  0120    53864    4800      0    1.62e+00    0    1.15e+00
2006 05 09  0125    53864    5100      0    1.60e+00    0    1.13e+00
2006 05 09  0130    53864    5400      0    1.56e+00    0    1.09e+00
2006 05 09  0135    53864    5700      0    1.58e+00    0    1.11e+00
2006 05 09  0140    53864    6000      0    1.61e+00    0    1.13e+00
2006 05 09  0145    53864    6300      0    1.57e+00    0    1.10e+00
2006 05 09  0150    53864    6600      0    1.58e+00    0    1.11e+00
2006 05 09  0155    53864    6900      0    1.57e+00    0    1.11e+00
2006 05 09  0200    53864    7200      0    1.57e+00    0    1.10e+00
2006 05 09  0205    53864    7500      0    1.56e+00    0    1.09e+00
2006 05 09  0210    53864    7800      0    1.58e+00    0    1.12e+00
2006 05 09  0215    53864    8100      0    1.56e+00    0    1.10e+00
2006 05 09  0220    53864    8400      0    1.61e+00    0    1.14e+00
2006 05 09  0225    53864    8700      0    1.58e+00    0    1.10e+00
2006 05 09  0230    53864    9000      0    1.59e+00    0    1.11e+00
2006 05 09  0235    53864    9300      0    1.58e+00    0    1.10e+00
2006 05 09  0240    53864    9600      0    1.56e+00    0    1.09e+00
2006 05 09  0245    53864    9900      0    1.61e+00    0    1.13e+00
2006 05 09  0250    53864   10200      0    1.57e+00    0    1.08e+00
2006 05 09  0255    53864   10500      0    1.60e+00    0    1.12e+00
2006 05 09  0300    53864   10800      0    1.54e+00    0    1.08e+00
2006 05 09  0305    53864   11100      0    1.54e+00    0    1.10e+00
2006 05 09  0310    53864   11400      0    1.59e+00    0    1.12e+00
2006 05 09  0315    53864   11700      0    1.60e+00    0    1.12e+00
2006 05 09  0320    53864   12000      0    1.58e+00    0    1.10e+00
2006 05 09  0325    53864   12300      0    1.58e+00    0    1.11e+00
2006 05 09  0330    53864   12600      0    1.55e+00    0    1.09e+00
2006 05 09  0335    53864   12900      0    1.58e+00    0    1.10e+00
2006 05 09  0340    53864   13200      0    1.53e+00    0    1.06e+00
2006 05 09  0345    53864   13500      0    1.60e+00    0    1.12e+00
2006 05 09  0350    53864   13800      0    1.62e+00    0    1.13e+00
2006 05 09  0355    53864   14100      0    1.60e+00    0    1.12e+00
2006 05 09  0400    53864   14400      0    1.58e+00    0    1.09e+00
2006 05 09  0405    53864   14700      0    1.61e+00    0    1.13e+00
2006 05 09  0410    53864   15000      0    1.58e+00    0    1.11e+00
2006 05 09  0415    53864   15300      0    1.53e+00    0    1.08e+00
2006 05 09  0420    53864   15600      0    1.56e+00    0    1.10e+00
2006 05 09  0425    53864   15900      0    1.60e+00    0    1.14e+00
2006 05 09  0430    53864   16200      0    1.57e+00    0    1.10e+00
2006 05 09  0435    53864   16500      0    1.56e+00    0    1.08e+00
2006 05 09  0440    53864   16800      0    1.52e+00    0    1.07e+00
2006 05 09  0445    53864   17100      0    1.56e+00    0    1.09e+00
2006 05 09  0450    53864   17400      0    1.57e+00    0    1.12e+00
2006 05 09  0455    53864   17700      0    1.54e+00    0    1.08e+00
2006 05 09  0500    53864   18000      0    1.57e+00    0    1.10e+00
2006 05 09  0505    53864   18300      0    1.55e+00    0    1.09e+00
2006 05 09  0510    53864   18600      0    1.57e+00    0    1.12e+00
2006 05 09  0515    53864   18900      0    1.61e+00    0    1.12e+00
2006 05 09  0520    53864   19200      0    1.59e+00    0    1.12e+00
2006 05 09  0525    53864   19500      0    1.58e+00    0    1.11e+00
2006 05 09  0530    53864   19800      0    1.58e+00    0    1.12e+00
2006 05 09  0535    53864   20100      0    1.57e+00    0    1.09e+00
2006 05 09  0540    53864   20400      0    1.57e+00    0    1.10e+00
2006 05 09  0545    53864   20700      0    1.57e+00    0    1.11e+00
2006 05 09  0550    53864   21000      0    1.55e+00    0    1.07e+00
2006 05 09  0555    53864   21300      0    1.56e+00    0    1.10e+00
2006 05 09  0600    53864   21600      0    1.60e+00    0    1.12e+00
2006 05 09  0605    53864   21900      0    1.61e+00    0    1.13e+00
2006 05 09  0610    53864   22200      0    1.63e+00    0    1.14e+00
2006 05 09  0615    53864   22500      0    1.55e+00    0    1.08e+00
2006 05 09  0620    53864   22800      0    1.64e+00    0    1.16e+00
2006 05 09  0625    53864   23100      0    1.59e+00    0    1.12e+00
2006 05 09  0630    53864   23400      0    1.57e+00    0    1.11e+00
2006 05 09  0635    53864   23700      0    1.59e+00    0    1.12e+00
2006 05 09  0640    53864   24000      0    1.60e+00    0    1.12e+00
2006 05 09  0645    53864   24300      0    1.56e+00    0    1.10e+00
2006 05 09  0650    53864   24600      0    1.57e+00    0    1.11e+00
2006 05 09  0655    53864   24900      0    1.60e+00    0    1.14e+00
2006 05 09  0700    53864   25200      0    1.58e+00    0    1.11e+00
2006 05 09  0705    53864   25500      0    1.57e+00    0    1.10e+00
2006 05 09  0710    53864   25800      0    1.59e+00    0    1.11e+00
2006 05 09  0715    53864   26100      0    1.60e+00    0    1.12e+00
2006 05 09  0720    53864   26400      0    1.58e+00    0    1.10e+00
2006 05 09  0725    53864   26700      0    1.51e+00    0    1.06e+00
2006 05 09  0730    53864   27000      0    1.57e+00    0    1.11e+00
2006 05 09  0735    53864   27300      0    1.61e+00    0    1.13e+00
2006 05 09  0740    53864   27600      0    1.61e+00    0    1.12e+00
2006 05 09  0745    53864   27900      0    1.57e+00    0    1.10e+00
2006 05 09  0750    53864   28200      0    1.58e+00    0    1.11e+00
2006 05 09  0755    53864   28500      0    1.58e+00    0    1.11e+00
2006 05 09  0800    53864   28800      0    1.57e+00    0    1.10e+00
2006 05 09  0805    53864   29100      0    1.59e+00    0    1.12e+00
2006 05 09  0810    53864   29400      0    1.60e+00    0    1.12e+00
2006 05 09  0815    53864   29700      0    1.55e+00    0    1.08e+00
2006 05 09  0820    53864   30000      0    1.61e+00    0    1.12e+00
2006 05 09  0825    53864   30300      0    1.58e+00    0    1.11e+00
2006 05 09  0830    53864   30600      0    1.58e+00    0    1.11e+00
2006 05 09  0835    53864   30900      0    1.56e+00    0    1.09e+00
2006 05 09  0840    53864   31200      0    1.60e+00    0    1.13e+00
2006 05 09  0845    53864   31500      0    1.58e+00    0    1.11e+00
2006 05 09  0850    53864   31800      0    1.62e+00    0    1.14e+00
2006 05 09  0855    53864   32100      0    1.58e+00    0    1.12e+00
2006 05 09  0900    53864   32400      0    1.58e+00    0    1.10e+00
2006 05 09  0905    53864   32700      0    1.61e+00    0    1.13e+00
2006 05 09  0910    53864   33000      0    1.60e+00    0    1.14e+00
2006 05 09  0915    53864   33300      0    1.60e+00    0    1.12e+00
2006 05 09  0920    53864   33600      0    1.60e+00    0    1.14e+00
2006 05 09  0925    53864   33900      0    1.59e+00    0    1.12e+00
2006 05 09  0930    53864   34200      0    1.57e+00    0    1.10e+00
2006 05 09  0935    53864   34500      0    1.58e+00    0    1.10e+00
2006 05 09  0940    53864   34800      0    1.56e+00    0    1.10e+00
2006 05 09  0945    53864   35100      0    1.60e+00    0    1.12e+00
2006 05 09  0950    53864   35400      0    1.56e+00    0    1.10e+00
2006 05 09  0955    53864   35700      0    1.58e+00    0    1.11e+00
2006 05 09  1000    53864   36000      0    1.57e+00    0    1.10e+00
2006 05 09  1005    53864   36300      0    1.60e+00    0    1.12e+00
2006 05 09  1010    53864   36600      0    1.62e+00    0    1.14e+00
2006 05 09  1015    53864   36900      0    1.59e+00    0    1.11e+00
2006 05 09  1020    53864   37200      0    1.60e+00    0    1.13e+00
2006 05 09  1025    53864   37500      0    1.59e+00    0    1.11e+00
2006 05 09  1030    53864   37800      0    1.56e+00    0    1.10e+00
2006 05 09  1035    53864   38100      0    1.57e+00    0    1.12e+00
2006 05 09  1040    53864   38400      0    1.57e+00    0    1.10e+00
2006 05 09  1045    53864   38700      0    1.54e+00    0    1.06e+00
2006 05 09  1050    53864   39000      0    1.59e+00    0    1.11e+00
2006 05 09  1055    53864   39300      0    1.61e+00    0    1.13e+00
2006 05 09  1100    53864   39600      0    1.59e+00    0    1.11e+00
2006 05 09  1105    53864   39900      0    1.54e+00    0    1.07e+00
2006 05 09  1110    53864   40200      0    1.56e+00    0    1.09e+00
2006 05 09  1115    53864   40500      0    1.62e+00    0    1.14e+00
2006 05 09  1120    53864   40800      0    1.60e+00    0    1.12e+00
2006 05 09  1125    53864   41100      0    1.57e+00    0    1.09e+00
2006 05 09  1130    53864   41400      0    1.58e+00    0    1.10e+00
2006 05 09  1135    53864   41700      0    1.56e+00    0    1.09e+00
2006 05 09  1140    53864   42000      0    1.60e+00    0    1.12e+00
2006 05 09  1145    53864   42300      0    1.59e+00    0    1.12e+00
2006 05 09  1150    53864   42600      0    1.62e+00    0    1.13e+00
2006 05 09  1155    53864   42900      0    1.57e+00    0    1.09e+00
2006 05 09  1200    53864   43200      0    1.56e+00    0    1.10e+00
2006 05 09  1205    53864   43500      0    1.57e+00    0    1.09e+00
2006 05 09  1210    53864   43800      0    1.61e+00    0    1.13e+00
2006 05 09  1215    53864   44100      0    1.61e+00    0    1.14e+00
2006 05 09  1220    53864   44400      0    1.59e+00    0    1.12e+00
2006 05 09  1225    53864   44700      0    1.59e+00    0    1.12e+00
2006 05 09  1230    53864   45000      0    1.63e+00    0    1.13e+00
2006 05 09  1235    53864   45300      0    1.56e+00    0    1.10e+00
2006 05 09  1240    53864   45600      0    1.60e+00    0    1.12e+00
2006 05 09  1245    53864   45900      0    1.58e+00    0    1.12e+00
2006 05 09  1250    53864   46200      0    1.57e+00    0    1.09e+00
2006 05 09  1255    53864   46500      0    1.59e+00    0    1.12e+00
2006 05 09  1300    53864   46800      0    1.62e+00    0    1.14e+00
2006 05 09  1305    53864   47100      0    1.62e+00    0    1.15e+00
2006 05 09  1310    53864   47400      0    1.61e+00    0    1.13e+00
2006 05 09  1315    53864   47700      0    1.61e+00    0    1.14e+00
2006 05 09  1320    53864   48000      0    1.56e+00    0    1.10e+00
2006 05 09  1325    53864   48300      0    1.61e+00    0    1.13e+00
2006 05 09  1330    53864   48600      0    1.58e+00    0    1.10e+00
2006 05 09  1335    53864   48900      0    1.57e+00    0    1.11e+00
2006 05 09  1340    53864   49200      0    1.60e+00    0    1.11e+00
2006 05 09  1345    53864   49500      0    1.56e+00    0    1.09e+00
2006 05 09  1350    53864   49800      0    1.58e+00    0    1.12e+00
2006 05 09  1355    53864   50100      0    1.64e+00    0    1.16e+00
2006 05 09  1400    53864   50400      0    1.61e+00    0    1.12e+00
2006 05 09  1405    53864   50700      0    1.60e+00    0    1.14e+00
2006 05 09  1410    53864   51000      0    1.57e+00    0    1.10e+00
2006 05 09  1415    53864   51300      0    1.60e+00    0    1.13e+00
2006 05 09  1420    53864   51600      0    1.60e+00    0    1.12e+00
2006 05 09  1425    53864   51900      0    1.59e+00    0    1.11e+00
2006 05 09  1430    53864   52200      0    1.61e+00    0    1.14e+00
2006 05 09  1435    53864   52500      0    1.61e+00    0    1.13e+00
2006 05 09  1440    53864   52800      0    1.58e+00    0    1.11e+00
2006 05 09  1445    53864   53100      0    1.59e+00    0    1.10e+00
2006 05 09  1450    53864   53400      0    1.56e+00    0    1.10e+00
2006 05 09  1455    53864   53700      0    1.59e+00    0    1.10e+00
2006 05 09  1500    53864   54000      0    1.60e+00    0    1.13e+00
2006 05 09  1505    53864   54300      0    1.58e+00    0    1.11e+00
2006 05 09  1510    53864   54600      0    1.62e+00    0    1.14e+00
2006 05 09  1515    53864   54900      0    1.61e+00    0    1.14e+00
2006 05 09  1520    53864   55200      0    1.60e+00    0    1.13e+00
2006 05 09  1525    53864   55500      0    1.59e+00    0    1.12e+00
2006 05 09  1530    53864   55800      0    1.59e+00    0    1.11e+00
2006 05 09  1535    53864   56100      0    1.60e+00    0    1.12e+00
2006 05 09  1540    53864   56400      0    1.60e+00    0    1.12e+00
2006 05 09  1545    53864   56700      0    1.60e+00    0    1.12e+00
2006 05 09  1550    53864   57000      0    1.59e+00    0    1.11e+00
2006 05 09  1555    53864   57300      0    1.62e+00    0    1.14e+00
2006 05 09  1600    53864   57600      0    1.62e+00    0    1.14e+00
2006 05 09  1605    53864   57900      0    1.61e+00    0    1.13e+00
2006 05 09  1610    53864   58200      0    1.57e+00    0    1.10e+00
2006 05 09  1615    53864   58500      0    1.58e+00    0    1.11e+00
2006 05 09  1620    53864   58800      0    1.62e+00    0    1.13e+00
2006 05 09  1625    53864   59100      0    1.60e+00    0    1.12e+00
2006 05 09  1630    53864   59400      0    1.59e+00    0    1.11e+00
2006 05 09  1635    53864   59700      0    1.56e+00    0    1.10e+00
2006 05 09  1640    53864   60000      0    1.58e+00    0    1.11e+00
2006 05 09  1645    53864   60300      0    1.61e+00    0    1.14e+00
2006 05 09  1650    53864   60600      0    1.60e+00    0    1.11e+00
2006 05 09  1655    53864   60900      0    1.63e+00    0    1.13e+00
2006 05 09  1700    53864   61200      0    1.64e+00    0    1.15e+00
2006 05 09  1705    53864   61500      0    1.60e+00    0    1.12e+00
2006 05 09  1710    53864   61800      0    1.57e+00    0    1.10e+00
2006 05 09  1715    53864   62100      0    1.59e+00    0    1.12e+00
2006 05 09  1720    53864   62400      0    1.58e+00    0    1.11e+00
2006 05 09  1725    53864   62700      0    1.63e+00    0    1.15e+00
2006 05 09  1730    53864   63000      0    1.59e+00    0    1.11e+00
2006 05 09  1735    53864   63300      0    1.57e+00    0    1.10e+00
2006 05 09  1740    53864   63600      0    1.61e+00    0    1.13e+00
2006 05 09  1745    53864   63900      0    1.59e+00    0    1.11e+00
2006 05 09  1750    53864   64200      0    1.58e+00    0    1.11e+00
2006 05 09  1755    53864   64500      0    1.60e+00    0    1.13e+00
2006 05 09  1800    53864   64800      0    1.60e+00    0    1.12e+00
2006 05 09  1805    53864   65100      0    1.61e+00    0    1.13e+00
2006 05 09  1810    53864   65400      0    1.63e+00    0    1.13e+00
2006 05 09  1815    53864   65700      0    1.58e+00    0    1.09e+00
2006 05 09  1820    53864   66000      0    1.62e+00    0    1.14e+00
2006 05 09  1825    53864   66300      0    1.55e+00    0    1.09e+00
2006 05 09  1830    53864   66600      0    1.57e+00    0    1.11e+00
2006 05 09  1835    53864   66900      0    1.55e+00    0    1.07e+00
2006 05 09  1840    53864   67200      0    1.60e+00    0    1.13e+00
2006 05 09  1845    53864   67500      0    1.65e+00    0    1.16e+00
2006 05 09  1850    53864   67800      0    1.56e+00    0    1.10e+00
2006 05 09  1855    53864   68100      0    1.58e+00    0    1.11e+00
2006 05 09  1900    53864   68400      0    1.57e+00    0    1.10e+00
2006 05 09  1905    53864   68700      0    1.57e+00    0    1.09e+00
2006 05 09  1910    53864   69000      0    1.62e+00    0    1.15e+00
2006 05 09  1915    53864   69300      0    1.56e+00    0    1.10e+00
2006 05 09  1920    53864   69600      0    1.63e+00    0    1.14e+00
2006 05 09  1925    53864   69900      0    1.60e+00    0    1.13e+00
2006 05 09  1930    53864   70200      0    1.58e+00    0    1.10e+00
2006 05 09  1935    53864   70500      0    1.61e+00    0    1.12e+00
2006 05 09  1940    53864   70800      0    1.59e+00    0    1.12e+00
2006 05 09  1945    53864   71100      0    1.64e+00    0    1.15e+00
2006 05 09  1950    53864   71400      0    1.58e+00    0    1.11e+00
2006 05 09  1955    53864   71700      0    1.59e+00    0    1.12e+00
2006 05 09  2000    53864   72000      0    1.60e+00    0    1.11e+00
2006 05 09  2005    53864   72300      0    1.63e+00    0    1.14e+00
2006 05 09  2010    53864   72600      0    1.63e+00    0    1.14e+00
2006 05 09  2015    53864   72900      0    1.60e+00    0    1.12e+00
2006 05 09  2020    53864   73200      0    1.56e+00    0    1.09e+00
2006 05 09  2025    53864   73500      0    1.59e+00    0    1.11e+00
2006 05 09  2030    53864   73800      0    1.63e+00    0    1.14e+00
2006 05 09  2035    53864   74100      0    1.61e+00    0    1.12e+00
2006 05 09  2040    53864   74400      0    1.59e+00    0    1.12e+00
2006 05 09  2045    53864   74700      0    1.60e+00    0    1.11e+00
2006 05 09  2050    53864   75000      0    1.60e+00    0    1.13e+00
2006 05 09  2055    53864   75300      0    1.61e+00    0    1.14e+00
2006 05 09  2100    53864   75600      0    1.62e+00    0    1.15e+00
2006 05 09  2105    53864   75900      0    1.61e+00    0    1.14e+00
2006 05 09  2110    53864   76200      0    1.61e+00    0    1.13e+00
2006 05 09  2115    53864   76500      0    1.61e+00    0    1.12e+00
2006 05 09  2120    53864   76800      0    1.64e+00    0    1.16e+00
2006 05 09  2125    53864   77100      0    1.57e+00    0    1.09e+00
2006 05 09  2130    53864   77400      0    1.61e+00    0    1.13e+00
2006 05 09  2135    53864   77700      0    1.59e+00    0    1.11e+00
2006 05 09  2140    53864   78000      0    1.59e+00    0    1.12e+00
2006 05 09  2145    53864   78300      0    1.62e+00    0    1.13e+00
2006 05 09  2150    53864   78600      0    1.62e+00    0    1.13e+00
2006 05 09  2155    53864   78900      0    1.58e+00    0    1.10e+00
2006 05 09  2200    53864   79200      0    1.60e+00    0    1.13e+00
2006 05 09  2205    53864   79500      0    1.61e+00    0    1.13e+00
2006 05 09  2210    53864   79800      0    1.58e+00    0    1.11e+00
2006 05 09  2215    53864   80100      0    1.64e+00    0    1.15e+00
2006 05 09  2220    53864   80400      0    1.59e+00    0    1.12e+00
2006 05 09  2225    53864   80700      0    1.60e+00    0    1.14e+00
2006 05 09  2230    53864   81000      0    1.62e+00    0    1.14e+00
2006 05 09  2235    53864   81300      0    1.58e+00    0    1.08e+00
2006 05 09  2240    53864   81600      0    1.61e+00    0    1.14e+00
2006 05 09  2245    53864   81900      0    1.59e+00    0    1.10e+00
2006 05 09  2250    53864   82200      0    1.63e+00    0    1.14e+00
2006 05 09  2255    53864   82500      0    1.63e+00    0    1.14e+00
2006 05 09  2300    53864   82800      0    1.59e+00    0    1.13e+00
2006 05 09  2305    53864   83100      0    1.61e+00    0    1.13e+00
2006 05 09  2310    53864   83400      0    1.60e+00    0    1.13e+00
2006 05 09  2315    53864   83700      0    1.61e+00    0    1.13e+00
2006 05 09  2320    53864   84000      0    1.63e+00    0    1.15e+00
2006 05 09  2325    53864   84300      0    1.61e+00    0    1.14e+00
2006 05 09  2330    53864   84600      0    1.54e+00    0    1.07e+00
2006 05 09  2335    53864   84900      0    1.62e+00    0    1.14e+00
2006 05 09  2340    53864   85200      0    1.60e+00    0    1.13e+00
2006 05 09  2345    53864   85500      0    1.62e+00    0    1.13e+00
2006 05 09  2350    53864   85800      0    1.60e+00    0    1.13e+00
2006 05 09  2355    53864   86100      0    1.61e+00    0    1.12e+00
