:Data_list: 20061005_ace_sis_5m.txt
:Created: 2006 Oct 06 0011 UT
# Prepared by the U.S. Dept. of Commerce, NOAA, Space Environment Center.
# Please send comments and suggestions to SEC.Webmaster@noaa.gov 
# 
# Units: proton flux p/cs2-sec-ster
# Status(S): 0 = nominal data, 1 to 8 = bad data record, 9 = no data
# Missing data values: -1.00e+05
# Source: ACE Satellite - Solar Isotope Spectrometer
#
# 5-minute averaged Real-time Integral Flux of High-energy Solar Protons
# 
#                 Modified Seconds
# UT Date   Time   Julian  of the      ---- Integral Proton Flux ----
# YR MO DA  HHMM     Day     Day       S    > 10 MeV    S    > 30 MeV
#--------------------------------------------------------------------
2006 10 05  0000    54013       0      0    1.65e+00    0    1.16e+00
2006 10 05  0005    54013     300      0    1.64e+00    0    1.15e+00
2006 10 05  0010    54013     600      0    1.67e+00    0    1.18e+00
2006 10 05  0015    54013     900      0    1.66e+00    0    1.16e+00
2006 10 05  0020    54013    1200      0    1.62e+00    0    1.13e+00
2006 10 05  0025    54013    1500      0    1.68e+00    0    1.18e+00
2006 10 05  0030    54013    1800      0    1.64e+00    0    1.15e+00
2006 10 05  0035    54013    2100      0    1.68e+00    0    1.18e+00
2006 10 05  0040    54013    2400      0    1.65e+00    0    1.16e+00
2006 10 05  0045    54013    2700      0    1.66e+00    0    1.17e+00
2006 10 05  0050    54013    3000      0    1.69e+00    0    1.20e+00
2006 10 05  0055    54013    3300      0    1.64e+00    0    1.14e+00
2006 10 05  0100    54013    3600      0    1.68e+00    0    1.19e+00
2006 10 05  0105    54013    3900      0    1.62e+00    0    1.13e+00
2006 10 05  0110    54013    4200      0    1.65e+00    0    1.14e+00
2006 10 05  0115    54013    4500      0    1.65e+00    0    1.16e+00
2006 10 05  0120    54013    4800      0    1.69e+00    0    1.18e+00
2006 10 05  0125    54013    5100      0    1.64e+00    0    1.15e+00
2006 10 05  0130    54013    5400      0    1.61e+00    0    1.12e+00
2006 10 05  0135    54013    5700      0    1.64e+00    0    1.15e+00
2006 10 05  0140    54013    6000      0    1.66e+00    0    1.17e+00
2006 10 05  0145    54013    6300      0    1.66e+00    0    1.16e+00
2006 10 05  0150    54013    6600      0    1.68e+00    0    1.18e+00
2006 10 05  0155    54013    6900      0    1.65e+00    0    1.16e+00
2006 10 05  0200    54013    7200      0    1.63e+00    0    1.14e+00
2006 10 05  0205    54013    7500      0    1.67e+00    0    1.17e+00
2006 10 05  0210    54013    7800      0    1.66e+00    0    1.16e+00
2006 10 05  0215    54013    8100      0    1.67e+00    0    1.17e+00
2006 10 05  0220    54013    8400      0    1.68e+00    0    1.17e+00
2006 10 05  0225    54013    8700      0    1.70e+00    0    1.20e+00
2006 10 05  0230    54013    9000      0    1.68e+00    0    1.19e+00
2006 10 05  0235    54013    9300      0    1.69e+00    0    1.18e+00
2006 10 05  0240    54013    9600      0    1.68e+00    0    1.18e+00
2006 10 05  0245    54013    9900      0    1.71e+00    0    1.21e+00
2006 10 05  0250    54013   10200      0    1.67e+00    0    1.17e+00
2006 10 05  0255    54013   10500      0    1.64e+00    0    1.15e+00
2006 10 05  0300    54013   10800      0    1.61e+00    0    1.13e+00
2006 10 05  0305    54013   11100      0    1.67e+00    0    1.16e+00
2006 10 05  0310    54013   11400      0    1.66e+00    0    1.15e+00
2006 10 05  0315    54013   11700      0    1.67e+00    0    1.17e+00
2006 10 05  0320    54013   12000      0    1.70e+00    0    1.18e+00
2006 10 05  0325    54013   12300      0    1.67e+00    0    1.16e+00
2006 10 05  0330    54013   12600      0    1.66e+00    0    1.17e+00
2006 10 05  0335    54013   12900      0    1.65e+00    0    1.16e+00
2006 10 05  0340    54013   13200      0    1.67e+00    0    1.17e+00
2006 10 05  0345    54013   13500      0    1.68e+00    0    1.17e+00
2006 10 05  0350    54013   13800      0    1.65e+00    0    1.15e+00
2006 10 05  0355    54013   14100      0    1.67e+00    0    1.17e+00
2006 10 05  0400    54013   14400      0    1.68e+00    0    1.18e+00
2006 10 05  0405    54013   14700      0    1.69e+00    0    1.19e+00
2006 10 05  0410    54013   15000      0    1.70e+00    0    1.19e+00
2006 10 05  0415    54013   15300      0    1.66e+00    0    1.17e+00
2006 10 05  0420    54013   15600      0    1.66e+00    0    1.16e+00
2006 10 05  0425    54013   15900      0    1.66e+00    0    1.15e+00
2006 10 05  0430    54013   16200      0    1.65e+00    0    1.17e+00
2006 10 05  0435    54013   16500      0    1.63e+00    0    1.14e+00
2006 10 05  0440    54013   16800      0    1.65e+00    0    1.15e+00
2006 10 05  0445    54013   17100      0    1.71e+00    0    1.20e+00
2006 10 05  0450    54013   17400      0    1.65e+00    0    1.16e+00
2006 10 05  0455    54013   17700      0    1.65e+00    0    1.16e+00
2006 10 05  0500    54013   18000      0    1.64e+00    0    1.16e+00
2006 10 05  0505    54013   18300      0    1.66e+00    0    1.15e+00
2006 10 05  0510    54013   18600      0    1.65e+00    0    1.16e+00
2006 10 05  0515    54013   18900      0    1.69e+00    0    1.18e+00
2006 10 05  0520    54013   19200      0    1.67e+00    0    1.18e+00
2006 10 05  0525    54013   19500      0    1.67e+00    0    1.17e+00
2006 10 05  0530    54013   19800      0    1.70e+00    0    1.19e+00
2006 10 05  0535    54013   20100      0    1.67e+00    0    1.18e+00
2006 10 05  0540    54013   20400      0    1.66e+00    0    1.17e+00
2006 10 05  0545    54013   20700      0    1.70e+00    0    1.19e+00
2006 10 05  0550    54013   21000      0    1.65e+00    0    1.15e+00
2006 10 05  0555    54013   21300      0    1.66e+00    0    1.17e+00
2006 10 05  0600    54013   21600      0    1.65e+00    0    1.15e+00
2006 10 05  0605    54013   21900      0    1.68e+00    0    1.19e+00
2006 10 05  0610    54013   22200      0    1.67e+00    0    1.19e+00
2006 10 05  0615    54013   22500      0    1.70e+00    0    1.20e+00
2006 10 05  0620    54013   22800      0    1.66e+00    0    1.18e+00
2006 10 05  0625    54013   23100      0    1.70e+00    0    1.18e+00
2006 10 05  0630    54013   23400      0    1.67e+00    0    1.16e+00
2006 10 05  0635    54013   23700      0    1.65e+00    0    1.14e+00
2006 10 05  0640    54013   24000      0    1.64e+00    0    1.15e+00
2006 10 05  0645    54013   24300      0    1.66e+00    0    1.16e+00
2006 10 05  0650    54013   24600      0    1.67e+00    0    1.17e+00
2006 10 05  0655    54013   24900      0    1.68e+00    0    1.19e+00
2006 10 05  0700    54013   25200      0    1.64e+00    0    1.15e+00
2006 10 05  0705    54013   25500      0    1.57e+00    0    1.10e+00
2006 10 05  0710    54013   25800      0    1.64e+00    0    1.16e+00
2006 10 05  0715    54013   26100      0    1.69e+00    0    1.19e+00
2006 10 05  0720    54013   26400      0    1.67e+00    0    1.18e+00
2006 10 05  0725    54013   26700      0    1.64e+00    0    1.15e+00
2006 10 05  0730    54013   27000      0    1.67e+00    0    1.17e+00
2006 10 05  0735    54013   27300      0    1.66e+00    0    1.17e+00
2006 10 05  0740    54013   27600      0    1.64e+00    0    1.15e+00
2006 10 05  0745    54013   27900      0    1.65e+00    0    1.15e+00
2006 10 05  0750    54013   28200      0    1.68e+00    0    1.18e+00
2006 10 05  0755    54013   28500      0    1.66e+00    0    1.16e+00
2006 10 05  0800    54013   28800      0    1.67e+00    0    1.17e+00
2006 10 05  0805    54013   29100      0    1.69e+00    0    1.19e+00
2006 10 05  0810    54013   29400      0    1.68e+00    0    1.18e+00
2006 10 05  0815    54013   29700      0    1.65e+00    0    1.15e+00
2006 10 05  0820    54013   30000      0    1.68e+00    0    1.17e+00
2006 10 05  0825    54013   30300      0    1.69e+00    0    1.18e+00
2006 10 05  0830    54013   30600      0    1.65e+00    0    1.16e+00
2006 10 05  0835    54013   30900      0    1.62e+00    0    1.13e+00
2006 10 05  0840    54013   31200      0    1.68e+00    0    1.18e+00
2006 10 05  0845    54013   31500      0    1.66e+00    0    1.17e+00
2006 10 05  0850    54013   31800      0    1.63e+00    0    1.13e+00
2006 10 05  0855    54013   32100      0    1.67e+00    0    1.17e+00
2006 10 05  0900    54013   32400      0    1.62e+00    0    1.14e+00
2006 10 05  0905    54013   32700      0    1.68e+00    0    1.17e+00
2006 10 05  0910    54013   33000      0    1.63e+00    0    1.14e+00
2006 10 05  0915    54013   33300      0    1.64e+00    0    1.15e+00
2006 10 05  0920    54013   33600      0    1.65e+00    0    1.15e+00
2006 10 05  0925    54013   33900      0    1.69e+00    0    1.18e+00
2006 10 05  0930    54013   34200      0    1.70e+00    0    1.20e+00
2006 10 05  0935    54013   34500      0    1.62e+00    0    1.14e+00
2006 10 05  0940    54013   34800      0    1.67e+00    0    1.18e+00
2006 10 05  0945    54013   35100      0    1.64e+00    0    1.14e+00
2006 10 05  0950    54013   35400      0    1.67e+00    0    1.18e+00
2006 10 05  0955    54013   35700      0    1.68e+00    0    1.18e+00
2006 10 05  1000    54013   36000      0    1.68e+00    0    1.17e+00
2006 10 05  1005    54013   36300      0    1.65e+00    0    1.17e+00
2006 10 05  1010    54013   36600      0    1.72e+00    0    1.21e+00
2006 10 05  1015    54013   36900      0    1.66e+00    0    1.16e+00
2006 10 05  1020    54013   37200      0    1.64e+00    0    1.16e+00
2006 10 05  1025    54013   37500      0    1.69e+00    0    1.20e+00
2006 10 05  1030    54013   37800      0    1.64e+00    0    1.14e+00
2006 10 05  1035    54013   38100      0    1.63e+00    0    1.13e+00
2006 10 05  1040    54013   38400      0    1.61e+00    0    1.13e+00
2006 10 05  1045    54013   38700      0    1.66e+00    0    1.17e+00
2006 10 05  1050    54013   39000      0    1.70e+00    0    1.20e+00
2006 10 05  1055    54013   39300      0    1.66e+00    0    1.16e+00
2006 10 05  1100    54013   39600      0    1.71e+00    0    1.20e+00
2006 10 05  1105    54013   39900      0    1.66e+00    0    1.16e+00
2006 10 05  1110    54013   40200      0    1.66e+00    0    1.17e+00
2006 10 05  1115    54013   40500      0    1.63e+00    0    1.14e+00
2006 10 05  1120    54013   40800      0    1.67e+00    0    1.17e+00
2006 10 05  1125    54013   41100      0    1.67e+00    0    1.17e+00
2006 10 05  1130    54013   41400      0    1.67e+00    0    1.17e+00
2006 10 05  1135    54013   41700      0    1.65e+00    0    1.15e+00
2006 10 05  1140    54013   42000      0    1.70e+00    0    1.18e+00
2006 10 05  1145    54013   42300      0    1.69e+00    0    1.17e+00
2006 10 05  1150    54013   42600      0    1.68e+00    0    1.16e+00
2006 10 05  1155    54013   42900      0    1.64e+00    0    1.15e+00
2006 10 05  1200    54013   43200      0    1.71e+00    0    1.19e+00
2006 10 05  1205    54013   43500      0    1.67e+00    0    1.16e+00
2006 10 05  1210    54013   43800      0    1.72e+00    0    1.19e+00
2006 10 05  1215    54013   44100      0    1.68e+00    0    1.19e+00
2006 10 05  1220    54013   44400      0    1.74e+00    0    1.22e+00
2006 10 05  1225    54013   44700      0    1.70e+00    0    1.18e+00
2006 10 05  1230    54013   45000      0    1.67e+00    0    1.16e+00
2006 10 05  1235    54013   45300      0    1.66e+00    0    1.17e+00
2006 10 05  1240    54013   45600      0    1.67e+00    0    1.18e+00
2006 10 05  1245    54013   45900      0    1.67e+00    0    1.17e+00
2006 10 05  1250    54013   46200      0    1.69e+00    0    1.20e+00
2006 10 05  1255    54013   46500      0    1.68e+00    0    1.18e+00
2006 10 05  1300    54013   46800      0    1.70e+00    0    1.19e+00
2006 10 05  1305    54013   47100      0    1.67e+00    0    1.17e+00
2006 10 05  1310    54013   47400      0    1.66e+00    0    1.17e+00
2006 10 05  1315    54013   47700      0    1.68e+00    0    1.18e+00
2006 10 05  1320    54013   48000      0    1.65e+00    0    1.17e+00
2006 10 05  1325    54013   48300      0    1.69e+00    0    1.19e+00
2006 10 05  1330    54013   48600      0    1.69e+00    0    1.18e+00
2006 10 05  1335    54013   48900      0    1.69e+00    0    1.18e+00
2006 10 05  1340    54013   49200      0    1.64e+00    0    1.14e+00
2006 10 05  1345    54013   49500      0    1.69e+00    0    1.18e+00
2006 10 05  1350    54013   49800      0    1.64e+00    0    1.15e+00
2006 10 05  1355    54013   50100      0    1.71e+00    0    1.20e+00
2006 10 05  1400    54013   50400      0    1.69e+00    0    1.19e+00
2006 10 05  1405    54013   50700      0    1.64e+00    0    1.14e+00
2006 10 05  1410    54013   51000      0    1.67e+00    0    1.17e+00
2006 10 05  1415    54013   51300      0    1.71e+00    0    1.19e+00
2006 10 05  1420    54013   51600      0    1.69e+00    0    1.19e+00
2006 10 05  1425    54013   51900      0    1.70e+00    0    1.20e+00
2006 10 05  1430    54013   52200      0    1.68e+00    0    1.18e+00
2006 10 05  1435    54013   52500      0    1.67e+00    0    1.17e+00
2006 10 05  1440    54013   52800      0    1.68e+00    0    1.18e+00
2006 10 05  1445    54013   53100      0    1.68e+00    0    1.19e+00
2006 10 05  1450    54013   53400      0    1.64e+00    0    1.15e+00
2006 10 05  1455    54013   53700      0    1.67e+00    0    1.16e+00
2006 10 05  1500    54013   54000      0    1.69e+00    0    1.18e+00
2006 10 05  1505    54013   54300      0    1.69e+00    0    1.20e+00
2006 10 05  1510    54013   54600      0    1.70e+00    0    1.20e+00
2006 10 05  1515    54013   54900      0    1.72e+00    0    1.21e+00
2006 10 05  1520    54013   55200      0    1.65e+00    0    1.13e+00
2006 10 05  1525    54013   55500      0    1.68e+00    0    1.18e+00
2006 10 05  1530    54013   55800      0    1.69e+00    0    1.18e+00
2006 10 05  1535    54013   56100      0    1.67e+00    0    1.17e+00
2006 10 05  1540    54013   56400      0    1.71e+00    0    1.20e+00
2006 10 05  1545    54013   56700      0    1.68e+00    0    1.18e+00
2006 10 05  1550    54013   57000      0    1.67e+00    0    1.16e+00
2006 10 05  1555    54013   57300      0    1.67e+00    0    1.17e+00
2006 10 05  1600    54013   57600      0    1.70e+00    0    1.17e+00
2006 10 05  1605    54013   57900      0    1.69e+00    0    1.19e+00
2006 10 05  1610    54013   58200      0    1.70e+00    0    1.20e+00
2006 10 05  1615    54013   58500      0    1.66e+00    0    1.16e+00
2006 10 05  1620    54013   58800      0    1.68e+00    0    1.19e+00
2006 10 05  1625    54013   59100      0    1.72e+00    0    1.21e+00
2006 10 05  1630    54013   59400      0    1.68e+00    0    1.19e+00
2006 10 05  1635    54013   59700      0    1.65e+00    0    1.16e+00
2006 10 05  1640    54013   60000      0    1.68e+00    0    1.18e+00
2006 10 05  1645    54013   60300      0    1.72e+00    0    1.20e+00
2006 10 05  1650    54013   60600      0    1.64e+00    0    1.15e+00
2006 10 05  1655    54013   60900      0    1.71e+00    0    1.21e+00
2006 10 05  1700    54013   61200      0    1.71e+00    0    1.20e+00
2006 10 05  1705    54013   61500      0    1.69e+00    0    1.19e+00
2006 10 05  1710    54013   61800      0    1.68e+00    0    1.16e+00
2006 10 05  1715    54013   62100      0    1.67e+00    0    1.17e+00
2006 10 05  1720    54013   62400      0    1.67e+00    0    1.16e+00
2006 10 05  1725    54013   62700      0    1.68e+00    0    1.18e+00
2006 10 05  1730    54013   63000      0    1.71e+00    0    1.19e+00
2006 10 05  1735    54013   63300      0    1.67e+00    0    1.16e+00
2006 10 05  1740    54013   63600      0    1.68e+00    0    1.17e+00
2006 10 05  1745    54013   63900      0    1.68e+00    0    1.19e+00
2006 10 05  1750    54013   64200      0    1.70e+00    0    1.19e+00
2006 10 05  1755    54013   64500      0    1.67e+00    0    1.17e+00
2006 10 05  1800    54013   64800      0    1.65e+00    0    1.17e+00
2006 10 05  1805    54013   65100      0    1.70e+00    0    1.19e+00
2006 10 05  1810    54013   65400      0    1.66e+00    0    1.16e+00
2006 10 05  1815    54013   65700      0    1.66e+00    0    1.16e+00
2006 10 05  1820    54013   66000      0    1.72e+00    0    1.22e+00
2006 10 05  1825    54013   66300      0    1.70e+00    0    1.21e+00
2006 10 05  1830    54013   66600      0    1.70e+00    0    1.20e+00
2006 10 05  1835    54013   66900      0    1.71e+00    0    1.20e+00
2006 10 05  1840    54013   67200      0    1.72e+00    0    1.20e+00
2006 10 05  1845    54013   67500      0    1.70e+00    0    1.19e+00
2006 10 05  1850    54013   67800      0    1.67e+00    0    1.17e+00
2006 10 05  1855    54013   68100      0    1.69e+00    0    1.19e+00
2006 10 05  1900    54013   68400      0    1.71e+00    0    1.19e+00
2006 10 05  1905    54013   68700      0    1.66e+00    0    1.17e+00
2006 10 05  1910    54013   69000      0    1.69e+00    0    1.19e+00
2006 10 05  1915    54013   69300      0    1.68e+00    0    1.19e+00
2006 10 05  1920    54013   69600      0    1.67e+00    0    1.17e+00
2006 10 05  1925    54013   69900      0    1.70e+00    0    1.19e+00
2006 10 05  1930    54013   70200      0    1.71e+00    0    1.21e+00
2006 10 05  1935    54013   70500      0    1.68e+00    0    1.17e+00
2006 10 05  1940    54013   70800      0    1.68e+00    0    1.18e+00
2006 10 05  1945    54013   71100      0    1.71e+00    0    1.20e+00
2006 10 05  1950    54013   71400      0    1.70e+00    0    1.19e+00
2006 10 05  1955    54013   71700      0    1.63e+00    0    1.13e+00
2006 10 05  2000    54013   72000      0    1.71e+00    0    1.20e+00
2006 10 05  2005    54013   72300      0    1.68e+00    0    1.18e+00
2006 10 05  2010    54013   72600      0    1.61e+00    0    1.14e+00
2006 10 05  2015    54013   72900      0    1.69e+00    0    1.18e+00
2006 10 05  2020    54013   73200      0    1.71e+00    0    1.21e+00
2006 10 05  2025    54013   73500      0    1.67e+00    0    1.15e+00
2006 10 05  2030    54013   73800      0    1.66e+00    0    1.16e+00
2006 10 05  2035    54013   74100      0    1.68e+00    0    1.17e+00
2006 10 05  2040    54013   74400      0    1.73e+00    0    1.19e+00
2006 10 05  2045    54013   74700      0    1.71e+00    0    1.19e+00
2006 10 05  2050    54013   75000      0    1.70e+00    0    1.19e+00
2006 10 05  2055    54013   75300      0    1.69e+00    0    1.18e+00
2006 10 05  2100    54013   75600      0    1.68e+00    0    1.18e+00
2006 10 05  2105    54013   75900      0    1.66e+00    0    1.15e+00
2006 10 05  2110    54013   76200      0    1.65e+00    0    1.14e+00
2006 10 05  2115    54013   76500      0    1.69e+00    0    1.17e+00
2006 10 05  2120    54013   76800      0    1.72e+00    0    1.21e+00
2006 10 05  2125    54013   77100      0    1.68e+00    0    1.17e+00
2006 10 05  2130    54013   77400      0    1.71e+00    0    1.22e+00
2006 10 05  2135    54013   77700      0    1.68e+00    0    1.18e+00
2006 10 05  2140    54013   78000      0    1.66e+00    0    1.16e+00
2006 10 05  2145    54013   78300      9   -1.00e+05    9   -1.00e+05
2006 10 05  2150    54013   78600      9   -1.00e+05    9   -1.00e+05
2006 10 05  2155    54013   78900      9   -1.00e+05    9   -1.00e+05
2006 10 05  2200    54013   79200      9   -1.00e+05    9   -1.00e+05
2006 10 05  2205    54013   79500      9   -1.00e+05    9   -1.00e+05
2006 10 05  2210    54013   79800      9   -1.00e+05    9   -1.00e+05
2006 10 05  2215    54013   80100      9   -1.00e+05    9   -1.00e+05
2006 10 05  2220    54013   80400      9   -1.00e+05    9   -1.00e+05
2006 10 05  2225    54013   80700      9   -1.00e+05    9   -1.00e+05
2006 10 05  2230    54013   81000      9   -1.00e+05    9   -1.00e+05
2006 10 05  2235    54013   81300      0    1.82e+00    0    1.33e+00
2006 10 05  2240    54013   81600      0    1.71e+00    0    1.20e+00
2006 10 05  2245    54013   81900      0    1.69e+00    0    1.19e+00
2006 10 05  2250    54013   82200      0    1.67e+00    0    1.17e+00
2006 10 05  2255    54013   82500      0    1.72e+00    0    1.22e+00
2006 10 05  2300    54013   82800      0    1.69e+00    0    1.18e+00
2006 10 05  2305    54013   83100      0    1.66e+00    0    1.17e+00
2006 10 05  2310    54013   83400      0    1.69e+00    0    1.19e+00
2006 10 05  2315    54013   83700      0    1.72e+00    0    1.21e+00
2006 10 05  2320    54013   84000      0    1.65e+00    0    1.15e+00
2006 10 05  2325    54013   84300      0    1.69e+00    0    1.19e+00
2006 10 05  2330    54013   84600      0    1.66e+00    0    1.18e+00
2006 10 05  2335    54013   84900      0    1.72e+00    0    1.20e+00
2006 10 05  2340    54013   85200      0    1.70e+00    0    1.19e+00
2006 10 05  2345    54013   85500      0    1.74e+00    0    1.22e+00
2006 10 05  2350    54013   85800      0    1.70e+00    0    1.20e+00
2006 10 05  2355    54013   86100      0    1.66e+00    0    1.16e+00
