:Data_list: 20060920_ace_sis_5m.txt
:Created: 2006 Sep 21 0011 UT
# Prepared by the U.S. Dept. of Commerce, NOAA, Space Environment Center.
# Please send comments and suggestions to SEC.Webmaster@noaa.gov 
# 
# Units: proton flux p/cs2-sec-ster
# Status(S): 0 = nominal data, 1 to 8 = bad data record, 9 = no data
# Missing data values: -1.00e+05
# Source: ACE Satellite - Solar Isotope Spectrometer
#
# 5-minute averaged Real-time Integral Flux of High-energy Solar Protons
# 
#                 Modified Seconds
# UT Date   Time   Julian  of the      ---- Integral Proton Flux ----
# YR MO DA  HHMM     Day     Day       S    > 10 MeV    S    > 30 MeV
#--------------------------------------------------------------------
2006 09 20  0000    53998       0      9   -1.00e+05    9   -1.00e+05
2006 09 20  0005    53998     300      0    1.64e+00    0    1.16e+00
2006 09 20  0010    53998     600      0    1.67e+00    0    1.17e+00
2006 09 20  0015    53998     900      0    1.63e+00    0    1.12e+00
2006 09 20  0020    53998    1200      0    1.66e+00    0    1.17e+00
2006 09 20  0025    53998    1500      0    1.69e+00    0    1.19e+00
2006 09 20  0030    53998    1800      0    1.66e+00    0    1.17e+00
2006 09 20  0035    53998    2100      0    1.67e+00    0    1.17e+00
2006 09 20  0040    53998    2400      0    1.70e+00    0    1.18e+00
2006 09 20  0045    53998    2700      0    1.65e+00    0    1.16e+00
2006 09 20  0050    53998    3000      0    1.68e+00    0    1.19e+00
2006 09 20  0055    53998    3300      0    1.67e+00    0    1.17e+00
2006 09 20  0100    53998    3600      0    1.65e+00    0    1.16e+00
2006 09 20  0105    53998    3900      0    1.71e+00    0    1.19e+00
2006 09 20  0110    53998    4200      0    1.68e+00    0    1.18e+00
2006 09 20  0115    53998    4500      0    1.62e+00    0    1.13e+00
2006 09 20  0120    53998    4800      0    1.71e+00    0    1.20e+00
2006 09 20  0125    53998    5100      0    1.66e+00    0    1.16e+00
2006 09 20  0130    53998    5400      0    1.70e+00    0    1.19e+00
2006 09 20  0135    53998    5700      0    1.69e+00    0    1.18e+00
2006 09 20  0140    53998    6000      0    1.66e+00    0    1.16e+00
2006 09 20  0145    53998    6300      0    1.64e+00    0    1.16e+00
2006 09 20  0150    53998    6600      0    1.71e+00    0    1.21e+00
2006 09 20  0155    53998    6900      0    1.67e+00    0    1.16e+00
2006 09 20  0200    53998    7200      0    1.64e+00    0    1.14e+00
2006 09 20  0205    53998    7500      0    1.62e+00    0    1.14e+00
2006 09 20  0210    53998    7800      0    1.71e+00    0    1.21e+00
2006 09 20  0215    53998    8100      0    1.66e+00    0    1.15e+00
2006 09 20  0220    53998    8400      0    1.63e+00    0    1.14e+00
2006 09 20  0225    53998    8700      0    1.65e+00    0    1.15e+00
2006 09 20  0230    53998    9000      0    1.69e+00    0    1.17e+00
2006 09 20  0235    53998    9300      0    1.69e+00    0    1.18e+00
2006 09 20  0240    53998    9600      0    1.65e+00    0    1.15e+00
2006 09 20  0245    53998    9900      0    1.64e+00    0    1.16e+00
2006 09 20  0250    53998   10200      0    1.67e+00    0    1.18e+00
2006 09 20  0255    53998   10500      0    1.65e+00    0    1.14e+00
2006 09 20  0300    53998   10800      0    1.65e+00    0    1.17e+00
2006 09 20  0305    53998   11100      0    1.66e+00    0    1.16e+00
2006 09 20  0310    53998   11400      0    1.63e+00    0    1.14e+00
2006 09 20  0315    53998   11700      0    1.66e+00    0    1.16e+00
2006 09 20  0320    53998   12000      0    1.65e+00    0    1.16e+00
2006 09 20  0325    53998   12300      0    1.67e+00    0    1.17e+00
2006 09 20  0330    53998   12600      0    1.63e+00    0    1.15e+00
2006 09 20  0335    53998   12900      0    1.65e+00    0    1.16e+00
2006 09 20  0340    53998   13200      0    1.66e+00    0    1.16e+00
2006 09 20  0345    53998   13500      0    1.66e+00    0    1.17e+00
2006 09 20  0350    53998   13800      0    1.69e+00    0    1.19e+00
2006 09 20  0355    53998   14100      0    1.67e+00    0    1.17e+00
2006 09 20  0400    53998   14400      0    1.70e+00    0    1.18e+00
2006 09 20  0405    53998   14700      0    1.70e+00    0    1.19e+00
2006 09 20  0410    53998   15000      0    1.67e+00    0    1.16e+00
2006 09 20  0415    53998   15300      0    1.66e+00    0    1.16e+00
2006 09 20  0420    53998   15600      0    1.69e+00    0    1.18e+00
2006 09 20  0425    53998   15900      0    1.67e+00    0    1.16e+00
2006 09 20  0430    53998   16200      0    1.67e+00    0    1.18e+00
2006 09 20  0435    53998   16500      0    1.70e+00    0    1.19e+00
2006 09 20  0440    53998   16800      0    1.65e+00    0    1.15e+00
2006 09 20  0445    53998   17100      0    1.68e+00    0    1.18e+00
2006 09 20  0450    53998   17400      0    1.66e+00    0    1.17e+00
2006 09 20  0455    53998   17700      0    1.68e+00    0    1.18e+00
2006 09 20  0500    53998   18000      0    1.67e+00    0    1.18e+00
2006 09 20  0505    53998   18300      0    1.65e+00    0    1.15e+00
2006 09 20  0510    53998   18600      0    1.69e+00    0    1.20e+00
2006 09 20  0515    53998   18900      0    1.67e+00    0    1.19e+00
2006 09 20  0520    53998   19200      0    1.69e+00    0    1.18e+00
2006 09 20  0525    53998   19500      0    1.68e+00    0    1.17e+00
2006 09 20  0530    53998   19800      0    1.68e+00    0    1.19e+00
2006 09 20  0535    53998   20100      0    1.69e+00    0    1.18e+00
2006 09 20  0540    53998   20400      0    1.68e+00    0    1.17e+00
2006 09 20  0545    53998   20700      0    1.66e+00    0    1.15e+00
2006 09 20  0550    53998   21000      0    1.69e+00    0    1.18e+00
2006 09 20  0555    53998   21300      0    1.67e+00    0    1.17e+00
2006 09 20  0600    53998   21600      0    1.65e+00    0    1.16e+00
2006 09 20  0605    53998   21900      0    1.68e+00    0    1.17e+00
2006 09 20  0610    53998   22200      0    1.66e+00    0    1.17e+00
2006 09 20  0615    53998   22500      0    1.65e+00    0    1.15e+00
2006 09 20  0620    53998   22800      0    1.70e+00    0    1.17e+00
2006 09 20  0625    53998   23100      0    1.68e+00    0    1.18e+00
2006 09 20  0630    53998   23400      0    1.67e+00    0    1.18e+00
2006 09 20  0635    53998   23700      0    1.68e+00    0    1.18e+00
2006 09 20  0640    53998   24000      0    1.67e+00    0    1.18e+00
2006 09 20  0645    53998   24300      0    1.69e+00    0    1.19e+00
2006 09 20  0650    53998   24600      0    1.71e+00    0    1.20e+00
2006 09 20  0655    53998   24900      0    1.69e+00    0    1.17e+00
2006 09 20  0700    53998   25200      0    1.71e+00    0    1.19e+00
2006 09 20  0705    53998   25500      0    1.64e+00    0    1.16e+00
2006 09 20  0710    53998   25800      0    1.64e+00    0    1.15e+00
2006 09 20  0715    53998   26100      0    1.71e+00    0    1.20e+00
2006 09 20  0720    53998   26400      0    1.66e+00    0    1.16e+00
2006 09 20  0725    53998   26700      0    1.71e+00    0    1.21e+00
2006 09 20  0730    53998   27000      0    1.69e+00    0    1.18e+00
2006 09 20  0735    53998   27300      0    1.68e+00    0    1.17e+00
2006 09 20  0740    53998   27600      0    1.72e+00    0    1.22e+00
2006 09 20  0745    53998   27900      0    1.67e+00    0    1.17e+00
2006 09 20  0750    53998   28200      0    1.67e+00    0    1.16e+00
2006 09 20  0755    53998   28500      0    1.68e+00    0    1.17e+00
2006 09 20  0800    53998   28800      0    1.68e+00    0    1.17e+00
2006 09 20  0805    53998   29100      0    1.69e+00    0    1.18e+00
2006 09 20  0810    53998   29400      0    1.70e+00    0    1.21e+00
2006 09 20  0815    53998   29700      0    1.65e+00    0    1.16e+00
2006 09 20  0820    53998   30000      0    1.68e+00    0    1.19e+00
2006 09 20  0825    53998   30300      0    1.71e+00    0    1.21e+00
2006 09 20  0830    53998   30600      0    1.67e+00    0    1.18e+00
2006 09 20  0835    53998   30900      0    1.70e+00    0    1.19e+00
2006 09 20  0840    53998   31200      0    1.69e+00    0    1.17e+00
2006 09 20  0845    53998   31500      0    1.70e+00    0    1.19e+00
2006 09 20  0850    53998   31800      0    1.67e+00    0    1.17e+00
2006 09 20  0855    53998   32100      0    1.68e+00    0    1.17e+00
2006 09 20  0900    53998   32400      0    1.66e+00    0    1.16e+00
2006 09 20  0905    53998   32700      0    1.63e+00    0    1.15e+00
2006 09 20  0910    53998   33000      0    1.65e+00    0    1.15e+00
2006 09 20  0915    53998   33300      0    1.66e+00    0    1.16e+00
2006 09 20  0920    53998   33600      0    1.66e+00    0    1.15e+00
2006 09 20  0925    53998   33900      0    1.63e+00    0    1.14e+00
2006 09 20  0930    53998   34200      0    1.64e+00    0    1.17e+00
2006 09 20  0935    53998   34500      0    1.66e+00    0    1.17e+00
2006 09 20  0940    53998   34800      0    1.64e+00    0    1.14e+00
2006 09 20  0945    53998   35100      0    1.65e+00    0    1.16e+00
2006 09 20  0950    53998   35400      0    1.63e+00    0    1.14e+00
2006 09 20  0955    53998   35700      0    1.66e+00    0    1.17e+00
2006 09 20  1000    53998   36000      0    1.69e+00    0    1.19e+00
2006 09 20  1005    53998   36300      0    1.64e+00    0    1.15e+00
2006 09 20  1010    53998   36600      0    1.66e+00    0    1.16e+00
2006 09 20  1015    53998   36900      0    1.66e+00    0    1.16e+00
2006 09 20  1020    53998   37200      0    1.65e+00    0    1.15e+00
2006 09 20  1025    53998   37500      0    1.63e+00    0    1.16e+00
2006 09 20  1030    53998   37800      0    1.67e+00    0    1.16e+00
2006 09 20  1035    53998   38100      0    1.67e+00    0    1.18e+00
2006 09 20  1040    53998   38400      0    1.63e+00    0    1.13e+00
2006 09 20  1045    53998   38700      0    1.64e+00    0    1.15e+00
2006 09 20  1050    53998   39000      0    1.63e+00    0    1.14e+00
2006 09 20  1055    53998   39300      0    1.68e+00    0    1.18e+00
2006 09 20  1100    53998   39600      0    1.62e+00    0    1.13e+00
2006 09 20  1105    53998   39900      0    1.67e+00    0    1.18e+00
2006 09 20  1110    53998   40200      0    1.66e+00    0    1.16e+00
2006 09 20  1115    53998   40500      0    1.64e+00    0    1.15e+00
2006 09 20  1120    53998   40800      0    1.65e+00    0    1.16e+00
2006 09 20  1125    53998   41100      0    1.65e+00    0    1.15e+00
2006 09 20  1130    53998   41400      0    1.61e+00    0    1.12e+00
2006 09 20  1135    53998   41700      0    1.66e+00    0    1.15e+00
2006 09 20  1140    53998   42000      0    1.66e+00    0    1.16e+00
2006 09 20  1145    53998   42300      0    1.66e+00    0    1.16e+00
2006 09 20  1150    53998   42600      0    1.66e+00    0    1.17e+00
2006 09 20  1155    53998   42900      0    1.65e+00    0    1.16e+00
2006 09 20  1200    53998   43200      0    1.63e+00    0    1.14e+00
2006 09 20  1205    53998   43500      0    1.65e+00    0    1.16e+00
2006 09 20  1210    53998   43800      0    1.66e+00    0    1.17e+00
2006 09 20  1215    53998   44100      0    1.65e+00    0    1.16e+00
2006 09 20  1220    53998   44400      0    1.66e+00    0    1.16e+00
2006 09 20  1225    53998   44700      0    1.62e+00    0    1.14e+00
2006 09 20  1230    53998   45000      0    1.65e+00    0    1.17e+00
2006 09 20  1235    53998   45300      0    1.66e+00    0    1.16e+00
2006 09 20  1240    53998   45600      0    1.62e+00    0    1.14e+00
2006 09 20  1245    53998   45900      0    1.66e+00    0    1.17e+00
2006 09 20  1250    53998   46200      0    1.70e+00    0    1.20e+00
2006 09 20  1255    53998   46500      0    1.68e+00    0    1.18e+00
2006 09 20  1300    53998   46800      0    1.69e+00    0    1.18e+00
2006 09 20  1305    53998   47100      0    1.69e+00    0    1.19e+00
2006 09 20  1310    53998   47400      0    1.65e+00    0    1.15e+00
2006 09 20  1315    53998   47700      0    1.63e+00    0    1.15e+00
2006 09 20  1320    53998   48000      0    1.67e+00    0    1.17e+00
2006 09 20  1325    53998   48300      0    1.64e+00    0    1.14e+00
2006 09 20  1330    53998   48600      0    1.68e+00    0    1.18e+00
2006 09 20  1335    53998   48900      0    1.62e+00    0    1.15e+00
2006 09 20  1340    53998   49200      0    1.64e+00    0    1.16e+00
2006 09 20  1345    53998   49500      0    1.65e+00    0    1.15e+00
2006 09 20  1350    53998   49800      0    1.66e+00    0    1.16e+00
2006 09 20  1355    53998   50100      0    1.66e+00    0    1.17e+00
2006 09 20  1400    53998   50400      0    1.62e+00    0    1.13e+00
2006 09 20  1405    53998   50700      0    1.57e+00    0    1.10e+00
2006 09 20  1410    53998   51000      0    1.65e+00    0    1.16e+00
2006 09 20  1415    53998   51300      0    1.66e+00    0    1.17e+00
2006 09 20  1420    53998   51600      0    1.66e+00    0    1.15e+00
2006 09 20  1425    53998   51900      0    1.68e+00    0    1.17e+00
2006 09 20  1430    53998   52200      0    1.67e+00    0    1.18e+00
2006 09 20  1435    53998   52500      0    1.66e+00    0    1.16e+00
2006 09 20  1440    53998   52800      0    1.63e+00    0    1.14e+00
2006 09 20  1445    53998   53100      0    1.65e+00    0    1.15e+00
2006 09 20  1450    53998   53400      0    1.64e+00    0    1.15e+00
2006 09 20  1455    53998   53700      0    1.68e+00    0    1.17e+00
2006 09 20  1500    53998   54000      0    1.69e+00    0    1.18e+00
2006 09 20  1505    53998   54300      0    1.66e+00    0    1.18e+00
2006 09 20  1510    53998   54600      0    1.66e+00    0    1.18e+00
2006 09 20  1515    53998   54900      0    1.68e+00    0    1.18e+00
2006 09 20  1520    53998   55200      0    1.66e+00    0    1.17e+00
2006 09 20  1525    53998   55500      0    1.66e+00    0    1.16e+00
2006 09 20  1530    53998   55800      0    1.66e+00    0    1.16e+00
2006 09 20  1535    53998   56100      0    1.68e+00    0    1.18e+00
2006 09 20  1540    53998   56400      0    1.70e+00    0    1.20e+00
2006 09 20  1545    53998   56700      0    1.69e+00    0    1.19e+00
2006 09 20  1550    53998   57000      0    1.66e+00    0    1.16e+00
2006 09 20  1555    53998   57300      0    1.65e+00    0    1.14e+00
2006 09 20  1600    53998   57600      0    1.70e+00    0    1.19e+00
2006 09 20  1605    53998   57900      0    1.69e+00    0    1.18e+00
2006 09 20  1610    53998   58200      0    1.68e+00    0    1.18e+00
2006 09 20  1615    53998   58500      0    1.68e+00    0    1.18e+00
2006 09 20  1620    53998   58800      0    1.65e+00    0    1.15e+00
2006 09 20  1625    53998   59100      0    1.68e+00    0    1.20e+00
2006 09 20  1630    53998   59400      0    1.65e+00    0    1.17e+00
2006 09 20  1635    53998   59700      0    1.68e+00    0    1.17e+00
2006 09 20  1640    53998   60000      0    1.67e+00    0    1.17e+00
2006 09 20  1645    53998   60300      0    1.68e+00    0    1.18e+00
2006 09 20  1650    53998   60600      0    1.68e+00    0    1.17e+00
2006 09 20  1655    53998   60900      0    1.67e+00    0    1.16e+00
2006 09 20  1700    53998   61200      0    1.67e+00    0    1.17e+00
2006 09 20  1705    53998   61500      0    1.65e+00    0    1.17e+00
2006 09 20  1710    53998   61800      0    1.64e+00    0    1.16e+00
2006 09 20  1715    53998   62100      0    1.67e+00    0    1.16e+00
2006 09 20  1720    53998   62400      0    1.69e+00    0    1.19e+00
2006 09 20  1725    53998   62700      0    1.68e+00    0    1.18e+00
2006 09 20  1730    53998   63000      0    1.66e+00    0    1.17e+00
2006 09 20  1735    53998   63300      0    1.68e+00    0    1.19e+00
2006 09 20  1740    53998   63600      0    1.67e+00    0    1.17e+00
2006 09 20  1745    53998   63900      0    1.66e+00    0    1.18e+00
2006 09 20  1750    53998   64200      0    1.65e+00    0    1.15e+00
2006 09 20  1755    53998   64500      0    1.68e+00    0    1.19e+00
2006 09 20  1800    53998   64800      0    1.66e+00    0    1.16e+00
2006 09 20  1805    53998   65100      0    1.68e+00    0    1.18e+00
2006 09 20  1810    53998   65400      0    1.66e+00    0    1.17e+00
2006 09 20  1815    53998   65700      0    1.68e+00    0    1.18e+00
2006 09 20  1820    53998   66000      0    1.70e+00    0    1.20e+00
2006 09 20  1825    53998   66300      0    1.68e+00    0    1.17e+00
2006 09 20  1830    53998   66600      0    1.70e+00    0    1.18e+00
2006 09 20  1835    53998   66900      0    1.70e+00    0    1.19e+00
2006 09 20  1840    53998   67200      0    1.70e+00    0    1.19e+00
2006 09 20  1845    53998   67500      0    1.69e+00    0    1.18e+00
2006 09 20  1850    53998   67800      0    1.64e+00    0    1.15e+00
2006 09 20  1855    53998   68100      0    1.66e+00    0    1.16e+00
2006 09 20  1900    53998   68400      0    1.65e+00    0    1.16e+00
2006 09 20  1905    53998   68700      0    1.70e+00    0    1.19e+00
2006 09 20  1910    53998   69000      0    1.69e+00    0    1.18e+00
2006 09 20  1915    53998   69300      0    1.66e+00    0    1.16e+00
2006 09 20  1920    53998   69600      0    1.67e+00    0    1.16e+00
2006 09 20  1925    53998   69900      0    1.68e+00    0    1.17e+00
2006 09 20  1930    53998   70200      0    1.67e+00    0    1.16e+00
2006 09 20  1935    53998   70500      0    1.67e+00    0    1.16e+00
2006 09 20  1940    53998   70800      0    1.70e+00    0    1.19e+00
2006 09 20  1945    53998   71100      0    1.67e+00    0    1.17e+00
2006 09 20  1950    53998   71400      0    1.66e+00    0    1.17e+00
2006 09 20  1955    53998   71700      0    1.70e+00    0    1.17e+00
2006 09 20  2000    53998   72000      0    1.69e+00    0    1.17e+00
2006 09 20  2005    53998   72300      0    1.69e+00    0    1.17e+00
2006 09 20  2010    53998   72600      0    1.66e+00    0    1.16e+00
2006 09 20  2015    53998   72900      0    1.69e+00    0    1.19e+00
2006 09 20  2020    53998   73200      0    1.65e+00    0    1.15e+00
2006 09 20  2025    53998   73500      0    1.64e+00    0    1.15e+00
2006 09 20  2030    53998   73800      0    1.69e+00    0    1.19e+00
2006 09 20  2035    53998   74100      0    1.66e+00    0    1.17e+00
2006 09 20  2040    53998   74400      0    1.67e+00    0    1.18e+00
2006 09 20  2045    53998   74700      0    1.67e+00    0    1.18e+00
2006 09 20  2050    53998   75000      0    1.66e+00    0    1.16e+00
2006 09 20  2055    53998   75300      0    1.69e+00    0    1.18e+00
2006 09 20  2100    53998   75600      0    1.64e+00    0    1.14e+00
2006 09 20  2105    53998   75900      0    1.68e+00    0    1.19e+00
2006 09 20  2110    53998   76200      0    1.68e+00    0    1.17e+00
2006 09 20  2115    53998   76500      0    1.71e+00    0    1.20e+00
2006 09 20  2120    53998   76800      0    1.66e+00    0    1.17e+00
2006 09 20  2125    53998   77100      0    1.66e+00    0    1.14e+00
2006 09 20  2130    53998   77400      0    1.67e+00    0    1.16e+00
2006 09 20  2135    53998   77700      0    1.70e+00    0    1.20e+00
2006 09 20  2140    53998   78000      0    1.71e+00    0    1.20e+00
2006 09 20  2145    53998   78300      0    1.64e+00    0    1.14e+00
2006 09 20  2150    53998   78600      0    1.66e+00    0    1.15e+00
2006 09 20  2155    53998   78900      0    1.68e+00    0    1.18e+00
2006 09 20  2200    53998   79200      0    1.66e+00    0    1.16e+00
2006 09 20  2205    53998   79500      0    1.68e+00    0    1.16e+00
2006 09 20  2210    53998   79800      0    1.67e+00    0    1.16e+00
2006 09 20  2215    53998   80100      0    1.66e+00    0    1.16e+00
2006 09 20  2220    53998   80400      0    1.65e+00    0    1.16e+00
2006 09 20  2225    53998   80700      0    1.70e+00    0    1.20e+00
2006 09 20  2230    53998   81000      0    1.68e+00    0    1.17e+00
2006 09 20  2235    53998   81300      0    1.69e+00    0    1.18e+00
2006 09 20  2240    53998   81600      0    1.71e+00    0    1.20e+00
2006 09 20  2245    53998   81900      0    1.67e+00    0    1.18e+00
2006 09 20  2250    53998   82200      0    1.65e+00    0    1.15e+00
2006 09 20  2255    53998   82500      0    1.70e+00    0    1.20e+00
2006 09 20  2300    53998   82800      0    1.70e+00    0    1.20e+00
2006 09 20  2305    53998   83100      0    1.66e+00    0    1.17e+00
2006 09 20  2310    53998   83400      0    1.69e+00    0    1.18e+00
2006 09 20  2315    53998   83700      0    1.68e+00    0    1.18e+00
2006 09 20  2320    53998   84000      0    1.71e+00    0    1.21e+00
2006 09 20  2325    53998   84300      0    1.68e+00    0    1.17e+00
2006 09 20  2330    53998   84600      0    1.73e+00    0    1.20e+00
2006 09 20  2335    53998   84900      0    1.69e+00    0    1.18e+00
2006 09 20  2340    53998   85200      0    1.65e+00    0    1.13e+00
2006 09 20  2345    53998   85500      0    1.68e+00    0    1.18e+00
2006 09 20  2350    53998   85800      0    1.69e+00    0    1.19e+00
2006 09 20  2355    53998   86100      0    1.65e+00    0    1.15e+00
