:Data_list: 20060909_ace_sis_5m.txt
:Created: 2006 Sep 10 0011 UT
# Prepared by the U.S. Dept. of Commerce, NOAA, Space Environment Center.
# Please send comments and suggestions to SEC.Webmaster@noaa.gov 
# 
# Units: proton flux p/cs2-sec-ster
# Status(S): 0 = nominal data, 1 to 8 = bad data record, 9 = no data
# Missing data values: -1.00e+05
# Source: ACE Satellite - Solar Isotope Spectrometer
#
# 5-minute averaged Real-time Integral Flux of High-energy Solar Protons
# 
#                 Modified Seconds
# UT Date   Time   Julian  of the      ---- Integral Proton Flux ----
# YR MO DA  HHMM     Day     Day       S    > 10 MeV    S    > 30 MeV
#--------------------------------------------------------------------
2006 09 09  0000    53987       0      9   -1.00e+05    9   -1.00e+05
2006 09 09  0005    53987     300      9   -1.00e+05    9   -1.00e+05
2006 09 09  0010    53987     600      9   -1.00e+05    9   -1.00e+05
2006 09 09  0015    53987     900      9   -1.00e+05    9   -1.00e+05
2006 09 09  0020    53987    1200      9   -1.00e+05    9   -1.00e+05
2006 09 09  0025    53987    1500      9   -1.00e+05    9   -1.00e+05
2006 09 09  0030    53987    1800      9   -1.00e+05    9   -1.00e+05
2006 09 09  0035    53987    2100      9   -1.00e+05    9   -1.00e+05
2006 09 09  0040    53987    2400      9   -1.00e+05    9   -1.00e+05
2006 09 09  0045    53987    2700      0    1.68e+00    0    1.17e+00
2006 09 09  0050    53987    3000      0    1.62e+00    0    1.14e+00
2006 09 09  0055    53987    3300      0    1.65e+00    0    1.16e+00
2006 09 09  0100    53987    3600      0    1.66e+00    0    1.17e+00
2006 09 09  0105    53987    3900      0    1.65e+00    0    1.16e+00
2006 09 09  0110    53987    4200      0    1.69e+00    0    1.19e+00
2006 09 09  0115    53987    4500      0    1.65e+00    0    1.14e+00
2006 09 09  0120    53987    4800      0    1.69e+00    0    1.18e+00
2006 09 09  0125    53987    5100      0    1.68e+00    0    1.18e+00
2006 09 09  0130    53987    5400      0    1.67e+00    0    1.17e+00
2006 09 09  0135    53987    5700      0    1.70e+00    0    1.17e+00
2006 09 09  0140    53987    6000      0    1.64e+00    0    1.15e+00
2006 09 09  0145    53987    6300      0    1.63e+00    0    1.13e+00
2006 09 09  0150    53987    6600      0    1.66e+00    0    1.17e+00
2006 09 09  0155    53987    6900      0    1.66e+00    0    1.16e+00
2006 09 09  0200    53987    7200      0    1.64e+00    0    1.15e+00
2006 09 09  0205    53987    7500      0    1.68e+00    0    1.17e+00
2006 09 09  0210    53987    7800      0    1.65e+00    0    1.16e+00
2006 09 09  0215    53987    8100      0    1.68e+00    0    1.18e+00
2006 09 09  0220    53987    8400      0    1.65e+00    0    1.16e+00
2006 09 09  0225    53987    8700      0    1.64e+00    0    1.15e+00
2006 09 09  0230    53987    9000      0    1.67e+00    0    1.18e+00
2006 09 09  0235    53987    9300      9   -1.00e+05    9   -1.00e+05
2006 09 09  0240    53987    9600      9   -1.00e+05    9   -1.00e+05
2006 09 09  0245    53987    9900      9   -1.00e+05    9   -1.00e+05
2006 09 09  0250    53987   10200      9   -1.00e+05    9   -1.00e+05
2006 09 09  0255    53987   10500      9   -1.00e+05    9   -1.00e+05
2006 09 09  0300    53987   10800      9   -1.00e+05    9   -1.00e+05
2006 09 09  0305    53987   11100      9   -1.00e+05    9   -1.00e+05
2006 09 09  0310    53987   11400      9   -1.00e+05    9   -1.00e+05
2006 09 09  0315    53987   11700      9   -1.00e+05    9   -1.00e+05
2006 09 09  0320    53987   12000      9   -1.00e+05    9   -1.00e+05
2006 09 09  0325    53987   12300      0    1.68e+00    0    1.17e+00
2006 09 09  0330    53987   12600      0    1.62e+00    0    1.13e+00
2006 09 09  0335    53987   12900      0    1.67e+00    0    1.18e+00
2006 09 09  0340    53987   13200      0    1.66e+00    0    1.16e+00
2006 09 09  0345    53987   13500      0    1.65e+00    0    1.16e+00
2006 09 09  0350    53987   13800      0    1.66e+00    0    1.17e+00
2006 09 09  0355    53987   14100      0    1.67e+00    0    1.17e+00
2006 09 09  0400    53987   14400      0    1.64e+00    0    1.15e+00
2006 09 09  0405    53987   14700      0    1.65e+00    0    1.15e+00
2006 09 09  0410    53987   15000      0    1.68e+00    0    1.19e+00
2006 09 09  0415    53987   15300      0    1.66e+00    0    1.17e+00
2006 09 09  0420    53987   15600      0    1.67e+00    0    1.18e+00
2006 09 09  0425    53987   15900      0    1.64e+00    0    1.16e+00
2006 09 09  0430    53987   16200      9   -1.00e+05    9   -1.00e+05
2006 09 09  0435    53987   16500      9   -1.00e+05    9   -1.00e+05
2006 09 09  0440    53987   16800      9   -1.00e+05    9   -1.00e+05
2006 09 09  0445    53987   17100      9   -1.00e+05    9   -1.00e+05
2006 09 09  0450    53987   17400      0    1.61e+00    0    1.13e+00
2006 09 09  0455    53987   17700      0    1.65e+00    0    1.15e+00
2006 09 09  0500    53987   18000      0    1.64e+00    0    1.15e+00
2006 09 09  0505    53987   18300      0    1.68e+00    0    1.17e+00
2006 09 09  0510    53987   18600      0    1.64e+00    0    1.16e+00
2006 09 09  0515    53987   18900      0    1.65e+00    0    1.16e+00
2006 09 09  0520    53987   19200      0    1.67e+00    0    1.16e+00
2006 09 09  0525    53987   19500      0    1.68e+00    0    1.19e+00
2006 09 09  0530    53987   19800      0    1.68e+00    0    1.18e+00
2006 09 09  0535    53987   20100      0    1.64e+00    0    1.15e+00
2006 09 09  0540    53987   20400      0    1.67e+00    0    1.17e+00
2006 09 09  0545    53987   20700      0    1.65e+00    0    1.17e+00
2006 09 09  0550    53987   21000      0    1.65e+00    0    1.16e+00
2006 09 09  0555    53987   21300      0    1.66e+00    0    1.17e+00
2006 09 09  0600    53987   21600      0    1.66e+00    0    1.15e+00
2006 09 09  0605    53987   21900      0    1.66e+00    0    1.17e+00
2006 09 09  0610    53987   22200      0    1.66e+00    0    1.15e+00
2006 09 09  0615    53987   22500      0    1.61e+00    0    1.12e+00
2006 09 09  0620    53987   22800      0    1.62e+00    0    1.13e+00
2006 09 09  0625    53987   23100      0    1.64e+00    0    1.15e+00
2006 09 09  0630    53987   23400      0    1.65e+00    0    1.17e+00
2006 09 09  0635    53987   23700      0    1.66e+00    0    1.16e+00
2006 09 09  0640    53987   24000      0    1.62e+00    0    1.14e+00
2006 09 09  0645    53987   24300      0    1.63e+00    0    1.15e+00
2006 09 09  0650    53987   24600      0    1.65e+00    0    1.16e+00
2006 09 09  0655    53987   24900      0    1.65e+00    0    1.16e+00
2006 09 09  0700    53987   25200      0    1.61e+00    0    1.13e+00
2006 09 09  0705    53987   25500      0    1.68e+00    0    1.17e+00
2006 09 09  0710    53987   25800      0    1.65e+00    0    1.14e+00
2006 09 09  0715    53987   26100      0    1.66e+00    0    1.17e+00
2006 09 09  0720    53987   26400      0    1.63e+00    0    1.14e+00
2006 09 09  0725    53987   26700      0    1.66e+00    0    1.16e+00
2006 09 09  0730    53987   27000      0    1.65e+00    0    1.15e+00
2006 09 09  0735    53987   27300      0    1.62e+00    0    1.13e+00
2006 09 09  0740    53987   27600      0    1.67e+00    0    1.18e+00
2006 09 09  0745    53987   27900      0    1.67e+00    0    1.17e+00
2006 09 09  0750    53987   28200      0    1.67e+00    0    1.17e+00
2006 09 09  0755    53987   28500      0    1.64e+00    0    1.14e+00
2006 09 09  0800    53987   28800      0    1.67e+00    0    1.18e+00
2006 09 09  0805    53987   29100      0    1.68e+00    0    1.18e+00
2006 09 09  0810    53987   29400      0    1.65e+00    0    1.16e+00
2006 09 09  0815    53987   29700      0    1.65e+00    0    1.17e+00
2006 09 09  0820    53987   30000      0    1.64e+00    0    1.15e+00
2006 09 09  0825    53987   30300      0    1.62e+00    0    1.14e+00
2006 09 09  0830    53987   30600      0    1.64e+00    0    1.15e+00
2006 09 09  0835    53987   30900      0    1.67e+00    0    1.18e+00
2006 09 09  0840    53987   31200      0    1.67e+00    0    1.17e+00
2006 09 09  0845    53987   31500      0    1.66e+00    0    1.16e+00
2006 09 09  0850    53987   31800      0    1.67e+00    0    1.18e+00
2006 09 09  0855    53987   32100      0    1.64e+00    0    1.15e+00
2006 09 09  0900    53987   32400      0    1.64e+00    0    1.15e+00
2006 09 09  0905    53987   32700      0    1.69e+00    0    1.19e+00
2006 09 09  0910    53987   33000      0    1.66e+00    0    1.15e+00
2006 09 09  0915    53987   33300      0    1.64e+00    0    1.15e+00
2006 09 09  0920    53987   33600      0    1.64e+00    0    1.17e+00
2006 09 09  0925    53987   33900      0    1.67e+00    0    1.16e+00
2006 09 09  0930    53987   34200      0    1.61e+00    0    1.13e+00
2006 09 09  0935    53987   34500      0    1.63e+00    0    1.13e+00
2006 09 09  0940    53987   34800      0    1.66e+00    0    1.16e+00
2006 09 09  0945    53987   35100      0    1.65e+00    0    1.15e+00
2006 09 09  0950    53987   35400      0    1.63e+00    0    1.13e+00
2006 09 09  0955    53987   35700      0    1.66e+00    0    1.16e+00
2006 09 09  1000    53987   36000      0    1.67e+00    0    1.15e+00
2006 09 09  1005    53987   36300      0    1.68e+00    0    1.17e+00
2006 09 09  1010    53987   36600      0    1.68e+00    0    1.18e+00
2006 09 09  1015    53987   36900      0    1.65e+00    0    1.15e+00
2006 09 09  1020    53987   37200      0    1.68e+00    0    1.18e+00
2006 09 09  1025    53987   37500      0    1.68e+00    0    1.18e+00
2006 09 09  1030    53987   37800      0    1.65e+00    0    1.15e+00
2006 09 09  1035    53987   38100      0    1.63e+00    0    1.14e+00
2006 09 09  1040    53987   38400      0    1.66e+00    0    1.16e+00
2006 09 09  1045    53987   38700      0    1.64e+00    0    1.15e+00
2006 09 09  1050    53987   39000      0    1.66e+00    0    1.15e+00
2006 09 09  1055    53987   39300      0    1.65e+00    0    1.15e+00
2006 09 09  1100    53987   39600      0    1.64e+00    0    1.13e+00
2006 09 09  1105    53987   39900      0    1.63e+00    0    1.15e+00
2006 09 09  1110    53987   40200      0    1.64e+00    0    1.14e+00
2006 09 09  1115    53987   40500      0    1.67e+00    0    1.16e+00
2006 09 09  1120    53987   40800      0    1.63e+00    0    1.15e+00
2006 09 09  1125    53987   41100      0    1.64e+00    0    1.14e+00
2006 09 09  1130    53987   41400      0    1.65e+00    0    1.16e+00
2006 09 09  1135    53987   41700      0    1.64e+00    0    1.15e+00
2006 09 09  1140    53987   42000      0    1.63e+00    0    1.15e+00
2006 09 09  1145    53987   42300      0    1.68e+00    0    1.17e+00
2006 09 09  1150    53987   42600      0    1.68e+00    0    1.18e+00
2006 09 09  1155    53987   42900      0    1.67e+00    0    1.17e+00
2006 09 09  1200    53987   43200      0    1.66e+00    0    1.16e+00
2006 09 09  1205    53987   43500      0    1.65e+00    0    1.15e+00
2006 09 09  1210    53987   43800      0    1.62e+00    0    1.14e+00
2006 09 09  1215    53987   44100      0    1.63e+00    0    1.15e+00
2006 09 09  1220    53987   44400      0    1.69e+00    0    1.19e+00
2006 09 09  1225    53987   44700      0    1.67e+00    0    1.18e+00
2006 09 09  1230    53987   45000      0    1.67e+00    0    1.16e+00
2006 09 09  1235    53987   45300      0    1.67e+00    0    1.17e+00
2006 09 09  1240    53987   45600      0    1.65e+00    0    1.16e+00
2006 09 09  1245    53987   45900      0    1.64e+00    0    1.15e+00
2006 09 09  1250    53987   46200      0    1.62e+00    0    1.13e+00
2006 09 09  1255    53987   46500      0    1.63e+00    0    1.15e+00
2006 09 09  1300    53987   46800      0    1.66e+00    0    1.16e+00
2006 09 09  1305    53987   47100      0    1.64e+00    0    1.14e+00
2006 09 09  1310    53987   47400      0    1.67e+00    0    1.15e+00
2006 09 09  1315    53987   47700      0    1.63e+00    0    1.13e+00
2006 09 09  1320    53987   48000      0    1.64e+00    0    1.15e+00
2006 09 09  1325    53987   48300      0    1.65e+00    0    1.16e+00
2006 09 09  1330    53987   48600      0    1.62e+00    0    1.14e+00
2006 09 09  1335    53987   48900      0    1.67e+00    0    1.16e+00
2006 09 09  1340    53987   49200      0    1.63e+00    0    1.13e+00
2006 09 09  1345    53987   49500      0    1.67e+00    0    1.17e+00
2006 09 09  1350    53987   49800      0    1.66e+00    0    1.16e+00
2006 09 09  1355    53987   50100      0    1.64e+00    0    1.15e+00
2006 09 09  1400    53987   50400      0    1.62e+00    0    1.12e+00
2006 09 09  1405    53987   50700      0    1.65e+00    0    1.15e+00
2006 09 09  1410    53987   51000      0    1.65e+00    0    1.16e+00
2006 09 09  1415    53987   51300      0    1.62e+00    0    1.13e+00
2006 09 09  1420    53987   51600      0    1.64e+00    0    1.15e+00
2006 09 09  1425    53987   51900      0    1.66e+00    0    1.16e+00
2006 09 09  1430    53987   52200      0    1.66e+00    0    1.16e+00
2006 09 09  1435    53987   52500      0    1.62e+00    0    1.14e+00
2006 09 09  1440    53987   52800      0    1.61e+00    0    1.13e+00
2006 09 09  1445    53987   53100      0    1.68e+00    0    1.19e+00
2006 09 09  1450    53987   53400      0    1.67e+00    0    1.17e+00
2006 09 09  1455    53987   53700      0    1.65e+00    0    1.15e+00
2006 09 09  1500    53987   54000      0    1.67e+00    0    1.16e+00
2006 09 09  1505    53987   54300      0    1.64e+00    0    1.15e+00
2006 09 09  1510    53987   54600      0    1.67e+00    0    1.15e+00
2006 09 09  1515    53987   54900      0    1.61e+00    0    1.12e+00
2006 09 09  1520    53987   55200      0    1.67e+00    0    1.17e+00
2006 09 09  1525    53987   55500      0    1.67e+00    0    1.17e+00
2006 09 09  1530    53987   55800      0    1.69e+00    0    1.19e+00
2006 09 09  1535    53987   56100      0    1.67e+00    0    1.18e+00
2006 09 09  1540    53987   56400      0    1.64e+00    0    1.16e+00
2006 09 09  1545    53987   56700      0    1.65e+00    0    1.15e+00
2006 09 09  1550    53987   57000      0    1.64e+00    0    1.15e+00
2006 09 09  1555    53987   57300      0    1.66e+00    0    1.17e+00
2006 09 09  1600    53987   57600      0    1.65e+00    0    1.17e+00
2006 09 09  1605    53987   57900      0    1.65e+00    0    1.15e+00
2006 09 09  1610    53987   58200      0    1.66e+00    0    1.16e+00
2006 09 09  1615    53987   58500      0    1.63e+00    0    1.14e+00
2006 09 09  1620    53987   58800      0    1.64e+00    0    1.15e+00
2006 09 09  1625    53987   59100      0    1.67e+00    0    1.17e+00
2006 09 09  1630    53987   59400      0    1.69e+00    0    1.18e+00
2006 09 09  1635    53987   59700      0    1.67e+00    0    1.17e+00
2006 09 09  1640    53987   60000      0    1.63e+00    0    1.13e+00
2006 09 09  1645    53987   60300      0    1.64e+00    0    1.14e+00
2006 09 09  1650    53987   60600      0    1.65e+00    0    1.17e+00
2006 09 09  1655    53987   60900      0    1.65e+00    0    1.16e+00
2006 09 09  1700    53987   61200      0    1.66e+00    0    1.17e+00
2006 09 09  1705    53987   61500      0    1.65e+00    0    1.16e+00
2006 09 09  1710    53987   61800      0    1.63e+00    0    1.14e+00
2006 09 09  1715    53987   62100      0    1.64e+00    0    1.14e+00
2006 09 09  1720    53987   62400      0    1.66e+00    0    1.17e+00
2006 09 09  1725    53987   62700      0    1.63e+00    0    1.15e+00
2006 09 09  1730    53987   63000      0    1.62e+00    0    1.13e+00
2006 09 09  1735    53987   63300      0    1.65e+00    0    1.16e+00
2006 09 09  1740    53987   63600      0    1.70e+00    0    1.20e+00
2006 09 09  1745    53987   63900      0    1.63e+00    0    1.14e+00
2006 09 09  1750    53987   64200      0    1.63e+00    0    1.14e+00
2006 09 09  1755    53987   64500      0    1.61e+00    0    1.13e+00
2006 09 09  1800    53987   64800      0    1.63e+00    0    1.15e+00
2006 09 09  1805    53987   65100      0    1.68e+00    0    1.18e+00
2006 09 09  1810    53987   65400      0    1.65e+00    0    1.16e+00
2006 09 09  1815    53987   65700      0    1.66e+00    0    1.16e+00
2006 09 09  1820    53987   66000      0    1.61e+00    0    1.13e+00
2006 09 09  1825    53987   66300      0    1.61e+00    0    1.13e+00
2006 09 09  1830    53987   66600      0    1.68e+00    0    1.17e+00
2006 09 09  1835    53987   66900      0    1.62e+00    0    1.14e+00
2006 09 09  1840    53987   67200      0    1.68e+00    0    1.18e+00
2006 09 09  1845    53987   67500      0    1.64e+00    0    1.14e+00
2006 09 09  1850    53987   67800      0    1.66e+00    0    1.16e+00
2006 09 09  1855    53987   68100      0    1.63e+00    0    1.15e+00
2006 09 09  1900    53987   68400      0    1.62e+00    0    1.15e+00
2006 09 09  1905    53987   68700      0    1.57e+00    0    1.09e+00
2006 09 09  1910    53987   69000      0    1.64e+00    0    1.15e+00
2006 09 09  1915    53987   69300      0    1.63e+00    0    1.14e+00
2006 09 09  1920    53987   69600      0    1.61e+00    0    1.11e+00
2006 09 09  1925    53987   69900      0    1.66e+00    0    1.16e+00
2006 09 09  1930    53987   70200      0    1.66e+00    0    1.17e+00
2006 09 09  1935    53987   70500      0    1.63e+00    0    1.15e+00
2006 09 09  1940    53987   70800      0    1.67e+00    0    1.17e+00
2006 09 09  1945    53987   71100      0    1.67e+00    0    1.18e+00
2006 09 09  1950    53987   71400      0    1.64e+00    0    1.15e+00
2006 09 09  1955    53987   71700      0    1.64e+00    0    1.14e+00
2006 09 09  2000    53987   72000      0    1.65e+00    0    1.14e+00
2006 09 09  2005    53987   72300      0    1.67e+00    0    1.17e+00
2006 09 09  2010    53987   72600      0    1.66e+00    0    1.17e+00
2006 09 09  2015    53987   72900      0    1.67e+00    0    1.18e+00
2006 09 09  2020    53987   73200      0    1.64e+00    0    1.14e+00
2006 09 09  2025    53987   73500      0    1.61e+00    0    1.13e+00
2006 09 09  2030    53987   73800      0    1.62e+00    0    1.13e+00
2006 09 09  2035    53987   74100      0    1.66e+00    0    1.16e+00
2006 09 09  2040    53987   74400      0    1.63e+00    0    1.14e+00
2006 09 09  2045    53987   74700      0    1.62e+00    0    1.13e+00
2006 09 09  2050    53987   75000      0    1.63e+00    0    1.15e+00
2006 09 09  2055    53987   75300      0    1.62e+00    0    1.13e+00
2006 09 09  2100    53987   75600      0    1.62e+00    0    1.13e+00
2006 09 09  2105    53987   75900      0    1.60e+00    0    1.12e+00
2006 09 09  2110    53987   76200      0    1.65e+00    0    1.16e+00
2006 09 09  2115    53987   76500      0    1.68e+00    0    1.17e+00
2006 09 09  2120    53987   76800      0    1.64e+00    0    1.14e+00
2006 09 09  2125    53987   77100      0    1.63e+00    0    1.15e+00
2006 09 09  2130    53987   77400      0    1.65e+00    0    1.16e+00
2006 09 09  2135    53987   77700      0    1.65e+00    0    1.15e+00
2006 09 09  2140    53987   78000      0    1.67e+00    0    1.17e+00
2006 09 09  2145    53987   78300      0    1.62e+00    0    1.13e+00
2006 09 09  2150    53987   78600      0    1.61e+00    0    1.13e+00
2006 09 09  2155    53987   78900      0    1.63e+00    0    1.15e+00
2006 09 09  2200    53987   79200      0    1.62e+00    0    1.14e+00
2006 09 09  2205    53987   79500      0    1.63e+00    0    1.15e+00
2006 09 09  2210    53987   79800      0    1.64e+00    0    1.15e+00
2006 09 09  2215    53987   80100      0    1.61e+00    0    1.13e+00
2006 09 09  2220    53987   80400      0    1.59e+00    0    1.10e+00
2006 09 09  2225    53987   80700      0    1.60e+00    0    1.13e+00
2006 09 09  2230    53987   81000      0    1.66e+00    0    1.17e+00
2006 09 09  2235    53987   81300      0    1.62e+00    0    1.13e+00
2006 09 09  2240    53987   81600      0    1.65e+00    0    1.16e+00
2006 09 09  2245    53987   81900      0    1.60e+00    0    1.12e+00
2006 09 09  2250    53987   82200      0    1.61e+00    0    1.13e+00
2006 09 09  2255    53987   82500      0    1.63e+00    0    1.15e+00
2006 09 09  2300    53987   82800      9   -1.00e+05    9   -1.00e+05
2006 09 09  2305    53987   83100      9   -1.00e+05    9   -1.00e+05
2006 09 09  2310    53987   83400      9   -1.00e+05    9   -1.00e+05
2006 09 09  2315    53987   83700      9   -1.00e+05    9   -1.00e+05
2006 09 09  2320    53987   84000      9   -1.00e+05    9   -1.00e+05
2006 09 09  2325    53987   84300      9   -1.00e+05    9   -1.00e+05
2006 09 09  2330    53987   84600      9   -1.00e+05    9   -1.00e+05
2006 09 09  2335    53987   84900      9   -1.00e+05    9   -1.00e+05
2006 09 09  2340    53987   85200      9   -1.00e+05    9   -1.00e+05
2006 09 09  2345    53987   85500      9   -1.00e+05    9   -1.00e+05
2006 09 09  2350    53987   85800      9   -1.00e+05    9   -1.00e+05
2006 09 09  2355    53987   86100      0    1.59e+00    0    1.12e+00
