:Data_list: 20061122_ace_sis_5m.txt
:Created: 2006 Nov 23 0011 UT
# Prepared by the U.S. Dept. of Commerce, NOAA, Space Environment Center.
# Please send comments and suggestions to SEC.Webmaster@noaa.gov 
# 
# Units: proton flux p/cs2-sec-ster
# Status(S): 0 = nominal data, 1 to 8 = bad data record, 9 = no data
# Missing data values: -1.00e+05
# Source: ACE Satellite - Solar Isotope Spectrometer
#
# 5-minute averaged Real-time Integral Flux of High-energy Solar Protons
# 
#                 Modified Seconds
# UT Date   Time   Julian  of the      ---- Integral Proton Flux ----
# YR MO DA  HHMM     Day     Day       S    > 10 MeV    S    > 30 MeV
#--------------------------------------------------------------------
2006 11 22  0000    54061       0      0    1.76e+00    0    1.23e+00
2006 11 22  0005    54061     300      0    1.74e+00    0    1.20e+00
2006 11 22  0010    54061     600      0    1.76e+00    0    1.22e+00
2006 11 22  0015    54061     900      0    1.74e+00    0    1.20e+00
2006 11 22  0020    54061    1200      0    1.74e+00    0    1.21e+00
2006 11 22  0025    54061    1500      0    1.79e+00    0    1.25e+00
2006 11 22  0030    54061    1800      0    1.74e+00    0    1.21e+00
2006 11 22  0035    54061    2100      0    1.76e+00    0    1.23e+00
2006 11 22  0040    54061    2400      0    1.76e+00    0    1.22e+00
2006 11 22  0045    54061    2700      0    1.76e+00    0    1.21e+00
2006 11 22  0050    54061    3000      0    1.76e+00    0    1.22e+00
2006 11 22  0055    54061    3300      0    1.73e+00    0    1.21e+00
2006 11 22  0100    54061    3600      0    1.69e+00    0    1.18e+00
2006 11 22  0105    54061    3900      0    1.75e+00    0    1.22e+00
2006 11 22  0110    54061    4200      0    1.75e+00    0    1.23e+00
2006 11 22  0115    54061    4500      0    1.77e+00    0    1.25e+00
2006 11 22  0120    54061    4800      0    1.74e+00    0    1.21e+00
2006 11 22  0125    54061    5100      0    1.75e+00    0    1.21e+00
2006 11 22  0130    54061    5400      0    1.71e+00    0    1.20e+00
2006 11 22  0135    54061    5700      0    1.72e+00    0    1.19e+00
2006 11 22  0140    54061    6000      0    1.73e+00    0    1.20e+00
2006 11 22  0145    54061    6300      0    1.74e+00    0    1.21e+00
2006 11 22  0150    54061    6600      0    1.73e+00    0    1.20e+00
2006 11 22  0155    54061    6900      0    1.74e+00    0    1.22e+00
2006 11 22  0200    54061    7200      0    1.75e+00    0    1.22e+00
2006 11 22  0205    54061    7500      0    1.75e+00    0    1.24e+00
2006 11 22  0210    54061    7800      0    1.75e+00    0    1.22e+00
2006 11 22  0215    54061    8100      0    1.69e+00    0    1.17e+00
2006 11 22  0220    54061    8400      0    1.72e+00    0    1.21e+00
2006 11 22  0225    54061    8700      0    1.75e+00    0    1.22e+00
2006 11 22  0230    54061    9000      0    1.74e+00    0    1.21e+00
2006 11 22  0235    54061    9300      0    1.73e+00    0    1.20e+00
2006 11 22  0240    54061    9600      0    1.74e+00    0    1.22e+00
2006 11 22  0245    54061    9900      0    1.73e+00    0    1.20e+00
2006 11 22  0250    54061   10200      0    1.74e+00    0    1.22e+00
2006 11 22  0255    54061   10500      0    1.73e+00    0    1.21e+00
2006 11 22  0300    54061   10800      0    1.76e+00    0    1.24e+00
2006 11 22  0305    54061   11100      0    1.75e+00    0    1.22e+00
2006 11 22  0310    54061   11400      0    1.70e+00    0    1.20e+00
2006 11 22  0315    54061   11700      0    1.77e+00    0    1.23e+00
2006 11 22  0320    54061   12000      0    1.75e+00    0    1.22e+00
2006 11 22  0325    54061   12300      0    1.77e+00    0    1.23e+00
2006 11 22  0330    54061   12600      0    1.75e+00    0    1.21e+00
2006 11 22  0335    54061   12900      0    1.71e+00    0    1.18e+00
2006 11 22  0340    54061   13200      0    1.75e+00    0    1.21e+00
2006 11 22  0345    54061   13500      0    1.72e+00    0    1.19e+00
2006 11 22  0350    54061   13800      0    1.69e+00    0    1.18e+00
2006 11 22  0355    54061   14100      0    1.75e+00    0    1.22e+00
2006 11 22  0400    54061   14400      0    1.75e+00    0    1.22e+00
2006 11 22  0405    54061   14700      0    1.72e+00    0    1.20e+00
2006 11 22  0410    54061   15000      0    1.75e+00    0    1.23e+00
2006 11 22  0415    54061   15300      0    1.75e+00    0    1.23e+00
2006 11 22  0420    54061   15600      0    1.78e+00    0    1.24e+00
2006 11 22  0425    54061   15900      0    1.74e+00    0    1.22e+00
2006 11 22  0430    54061   16200      0    1.78e+00    0    1.24e+00
2006 11 22  0435    54061   16500      0    1.72e+00    0    1.21e+00
2006 11 22  0440    54061   16800      0    1.74e+00    0    1.21e+00
2006 11 22  0445    54061   17100      0    1.77e+00    0    1.25e+00
2006 11 22  0450    54061   17400      0    1.71e+00    0    1.19e+00
2006 11 22  0455    54061   17700      0    1.77e+00    0    1.24e+00
2006 11 22  0500    54061   18000      0    1.75e+00    0    1.22e+00
2006 11 22  0505    54061   18300      0    1.77e+00    0    1.23e+00
2006 11 22  0510    54061   18600      0    1.76e+00    0    1.23e+00
2006 11 22  0515    54061   18900      0    1.75e+00    0    1.24e+00
2006 11 22  0520    54061   19200      0    1.74e+00    0    1.22e+00
2006 11 22  0525    54061   19500      0    1.74e+00    0    1.22e+00
2006 11 22  0530    54061   19800      0    1.74e+00    0    1.21e+00
2006 11 22  0535    54061   20100      0    1.75e+00    0    1.23e+00
2006 11 22  0540    54061   20400      0    1.72e+00    0    1.20e+00
2006 11 22  0545    54061   20700      0    1.73e+00    0    1.21e+00
2006 11 22  0550    54061   21000      0    1.73e+00    0    1.21e+00
2006 11 22  0555    54061   21300      0    1.79e+00    0    1.26e+00
2006 11 22  0600    54061   21600      0    1.77e+00    0    1.23e+00
2006 11 22  0605    54061   21900      0    1.77e+00    0    1.24e+00
2006 11 22  0610    54061   22200      0    1.82e+00    0    1.27e+00
2006 11 22  0615    54061   22500      0    1.78e+00    0    1.24e+00
2006 11 22  0620    54061   22800      0    1.79e+00    0    1.24e+00
2006 11 22  0625    54061   23100      0    1.77e+00    0    1.24e+00
2006 11 22  0630    54061   23400      0    1.74e+00    0    1.22e+00
2006 11 22  0635    54061   23700      0    1.74e+00    0    1.22e+00
2006 11 22  0640    54061   24000      0    1.73e+00    0    1.21e+00
2006 11 22  0645    54061   24300      0    1.76e+00    0    1.23e+00
2006 11 22  0650    54061   24600      0    1.77e+00    0    1.24e+00
2006 11 22  0655    54061   24900      0    1.75e+00    0    1.21e+00
2006 11 22  0700    54061   25200      0    1.77e+00    0    1.23e+00
2006 11 22  0705    54061   25500      0    1.67e+00    0    1.19e+00
2006 11 22  0710    54061   25800      0    1.76e+00    0    1.22e+00
2006 11 22  0715    54061   26100      0    1.72e+00    0    1.20e+00
2006 11 22  0720    54061   26400      0    1.76e+00    0    1.23e+00
2006 11 22  0725    54061   26700      0    1.77e+00    0    1.24e+00
2006 11 22  0730    54061   27000      0    1.73e+00    0    1.20e+00
2006 11 22  0735    54061   27300      0    1.77e+00    0    1.24e+00
2006 11 22  0740    54061   27600      0    1.74e+00    0    1.21e+00
2006 11 22  0745    54061   27900      0    1.77e+00    0    1.24e+00
2006 11 22  0750    54061   28200      0    1.75e+00    0    1.23e+00
2006 11 22  0755    54061   28500      0    1.73e+00    0    1.20e+00
2006 11 22  0800    54061   28800      0    1.78e+00    0    1.23e+00
2006 11 22  0805    54061   29100      0    1.77e+00    0    1.24e+00
2006 11 22  0810    54061   29400      0    1.77e+00    0    1.24e+00
2006 11 22  0815    54061   29700      0    1.73e+00    0    1.21e+00
2006 11 22  0820    54061   30000      0    1.74e+00    0    1.22e+00
2006 11 22  0825    54061   30300      0    1.75e+00    0    1.22e+00
2006 11 22  0830    54061   30600      0    1.77e+00    0    1.24e+00
2006 11 22  0835    54061   30900      0    1.79e+00    0    1.25e+00
2006 11 22  0840    54061   31200      0    1.78e+00    0    1.25e+00
2006 11 22  0845    54061   31500      0    1.81e+00    0    1.27e+00
2006 11 22  0850    54061   31800      0    1.75e+00    0    1.21e+00
2006 11 22  0855    54061   32100      0    1.73e+00    0    1.22e+00
2006 11 22  0900    54061   32400      0    1.77e+00    0    1.22e+00
2006 11 22  0905    54061   32700      0    1.76e+00    0    1.23e+00
2006 11 22  0910    54061   33000      0    1.77e+00    0    1.25e+00
2006 11 22  0915    54061   33300      0    1.74e+00    0    1.22e+00
2006 11 22  0920    54061   33600      0    1.76e+00    0    1.23e+00
2006 11 22  0925    54061   33900      0    1.78e+00    0    1.25e+00
2006 11 22  0930    54061   34200      0    1.75e+00    0    1.22e+00
2006 11 22  0935    54061   34500      0    1.76e+00    0    1.25e+00
2006 11 22  0940    54061   34800      0    1.73e+00    0    1.21e+00
2006 11 22  0945    54061   35100      0    1.72e+00    0    1.21e+00
2006 11 22  0950    54061   35400      0    1.73e+00    0    1.22e+00
2006 11 22  0955    54061   35700      0    1.75e+00    0    1.23e+00
2006 11 22  1000    54061   36000      0    1.76e+00    0    1.23e+00
2006 11 22  1005    54061   36300      0    1.75e+00    0    1.23e+00
2006 11 22  1010    54061   36600      0    1.78e+00    0    1.25e+00
2006 11 22  1015    54061   36900      0    1.77e+00    0    1.24e+00
2006 11 22  1020    54061   37200      0    1.78e+00    0    1.24e+00
2006 11 22  1025    54061   37500      0    1.74e+00    0    1.22e+00
2006 11 22  1030    54061   37800      0    1.75e+00    0    1.22e+00
2006 11 22  1035    54061   38100      0    1.78e+00    0    1.25e+00
2006 11 22  1040    54061   38400      0    1.76e+00    0    1.25e+00
2006 11 22  1045    54061   38700      0    1.81e+00    0    1.26e+00
2006 11 22  1050    54061   39000      0    1.73e+00    0    1.21e+00
2006 11 22  1055    54061   39300      0    1.80e+00    0    1.26e+00
2006 11 22  1100    54061   39600      0    1.80e+00    0    1.24e+00
2006 11 22  1105    54061   39900      0    1.78e+00    0    1.26e+00
2006 11 22  1110    54061   40200      0    1.77e+00    0    1.24e+00
2006 11 22  1115    54061   40500      0    1.73e+00    0    1.20e+00
2006 11 22  1120    54061   40800      0    1.77e+00    0    1.24e+00
2006 11 22  1125    54061   41100      0    1.76e+00    0    1.22e+00
2006 11 22  1130    54061   41400      0    1.73e+00    0    1.21e+00
2006 11 22  1135    54061   41700      0    1.77e+00    0    1.23e+00
2006 11 22  1140    54061   42000      0    1.79e+00    0    1.25e+00
2006 11 22  1145    54061   42300      0    1.81e+00    0    1.26e+00
2006 11 22  1150    54061   42600      0    1.80e+00    0    1.26e+00
2006 11 22  1155    54061   42900      0    1.75e+00    0    1.23e+00
2006 11 22  1200    54061   43200      0    1.76e+00    0    1.24e+00
2006 11 22  1205    54061   43500      0    1.77e+00    0    1.23e+00
2006 11 22  1210    54061   43800      0    1.77e+00    0    1.23e+00
2006 11 22  1215    54061   44100      0    1.82e+00    0    1.28e+00
2006 11 22  1220    54061   44400      0    1.77e+00    0    1.24e+00
2006 11 22  1225    54061   44700      0    1.75e+00    0    1.24e+00
2006 11 22  1230    54061   45000      0    1.77e+00    0    1.23e+00
2006 11 22  1235    54061   45300      0    1.80e+00    0    1.26e+00
2006 11 22  1240    54061   45600      0    1.75e+00    0    1.24e+00
2006 11 22  1245    54061   45900      0    1.75e+00    0    1.21e+00
2006 11 22  1250    54061   46200      0    1.77e+00    0    1.24e+00
2006 11 22  1255    54061   46500      0    1.74e+00    0    1.21e+00
2006 11 22  1300    54061   46800      0    1.77e+00    0    1.23e+00
2006 11 22  1305    54061   47100      0    1.78e+00    0    1.24e+00
2006 11 22  1310    54061   47400      0    1.76e+00    0    1.22e+00
2006 11 22  1315    54061   47700      0    1.76e+00    0    1.22e+00
2006 11 22  1320    54061   48000      0    1.79e+00    0    1.25e+00
2006 11 22  1325    54061   48300      0    1.80e+00    0    1.26e+00
2006 11 22  1330    54061   48600      0    1.79e+00    0    1.26e+00
2006 11 22  1335    54061   48900      0    1.79e+00    0    1.25e+00
2006 11 22  1340    54061   49200      0    1.78e+00    0    1.26e+00
2006 11 22  1345    54061   49500      0    1.81e+00    0    1.26e+00
2006 11 22  1350    54061   49800      0    1.84e+00    0    1.28e+00
2006 11 22  1355    54061   50100      0    1.78e+00    0    1.24e+00
2006 11 22  1400    54061   50400      0    1.75e+00    0    1.23e+00
2006 11 22  1405    54061   50700      0    1.78e+00    0    1.25e+00
2006 11 22  1410    54061   51000      0    1.78e+00    0    1.24e+00
2006 11 22  1415    54061   51300      0    1.83e+00    0    1.27e+00
2006 11 22  1420    54061   51600      0    1.76e+00    0    1.23e+00
2006 11 22  1425    54061   51900      0    1.78e+00    0    1.24e+00
2006 11 22  1430    54061   52200      0    1.82e+00    0    1.28e+00
2006 11 22  1435    54061   52500      0    1.75e+00    0    1.22e+00
2006 11 22  1440    54061   52800      0    1.81e+00    0    1.28e+00
2006 11 22  1445    54061   53100      0    1.81e+00    0    1.27e+00
2006 11 22  1450    54061   53400      0    1.69e+00    0    1.17e+00
2006 11 22  1455    54061   53700      0    1.75e+00    0    1.23e+00
2006 11 22  1500    54061   54000      0    1.78e+00    0    1.25e+00
2006 11 22  1505    54061   54300      0    1.73e+00    0    1.21e+00
2006 11 22  1510    54061   54600      0    1.75e+00    0    1.21e+00
2006 11 22  1515    54061   54900      0    1.77e+00    0    1.23e+00
2006 11 22  1520    54061   55200      0    1.76e+00    0    1.22e+00
2006 11 22  1525    54061   55500      0    1.74e+00    0    1.21e+00
2006 11 22  1530    54061   55800      0    1.72e+00    0    1.20e+00
2006 11 22  1535    54061   56100      0    1.75e+00    0    1.22e+00
2006 11 22  1540    54061   56400      0    1.76e+00    0    1.23e+00
2006 11 22  1545    54061   56700      0    1.74e+00    0    1.21e+00
2006 11 22  1550    54061   57000      0    1.74e+00    0    1.21e+00
2006 11 22  1555    54061   57300      0    1.76e+00    0    1.23e+00
2006 11 22  1600    54061   57600      0    1.75e+00    0    1.23e+00
2006 11 22  1605    54061   57900      0    1.75e+00    0    1.23e+00
2006 11 22  1610    54061   58200      0    1.77e+00    0    1.23e+00
2006 11 22  1615    54061   58500      0    1.77e+00    0    1.22e+00
2006 11 22  1620    54061   58800      0    1.74e+00    0    1.21e+00
2006 11 22  1625    54061   59100      0    1.75e+00    0    1.23e+00
2006 11 22  1630    54061   59400      0    1.77e+00    0    1.23e+00
2006 11 22  1635    54061   59700      0    1.73e+00    0    1.22e+00
2006 11 22  1640    54061   60000      0    1.73e+00    0    1.21e+00
2006 11 22  1645    54061   60300      0    1.76e+00    0    1.23e+00
2006 11 22  1650    54061   60600      0    1.77e+00    0    1.24e+00
2006 11 22  1655    54061   60900      0    1.76e+00    0    1.23e+00
2006 11 22  1700    54061   61200      0    1.81e+00    0    1.27e+00
2006 11 22  1705    54061   61500      0    1.75e+00    0    1.23e+00
2006 11 22  1710    54061   61800      0    1.76e+00    0    1.24e+00
2006 11 22  1715    54061   62100      0    1.77e+00    0    1.24e+00
2006 11 22  1720    54061   62400      0    1.71e+00    0    1.20e+00
2006 11 22  1725    54061   62700      0    1.78e+00    0    1.23e+00
2006 11 22  1730    54061   63000      0    1.74e+00    0    1.22e+00
2006 11 22  1735    54061   63300      0    1.75e+00    0    1.21e+00
2006 11 22  1740    54061   63600      0    1.77e+00    0    1.23e+00
2006 11 22  1745    54061   63900      0    1.75e+00    0    1.23e+00
2006 11 22  1750    54061   64200      0    1.75e+00    0    1.22e+00
2006 11 22  1755    54061   64500      0    1.74e+00    0    1.23e+00
2006 11 22  1800    54061   64800      0    1.74e+00    0    1.20e+00
2006 11 22  1805    54061   65100      0    1.75e+00    0    1.22e+00
2006 11 22  1810    54061   65400      0    1.77e+00    0    1.23e+00
2006 11 22  1815    54061   65700      0    1.77e+00    0    1.24e+00
2006 11 22  1820    54061   66000      0    1.75e+00    0    1.23e+00
2006 11 22  1825    54061   66300      0    1.75e+00    0    1.23e+00
2006 11 22  1830    54061   66600      0    1.76e+00    0    1.22e+00
2006 11 22  1835    54061   66900      0    1.79e+00    0    1.25e+00
2006 11 22  1840    54061   67200      0    1.72e+00    0    1.21e+00
2006 11 22  1845    54061   67500      0    1.67e+00    0    1.16e+00
2006 11 22  1850    54061   67800      0    1.74e+00    0    1.22e+00
2006 11 22  1855    54061   68100      0    1.76e+00    0    1.23e+00
2006 11 22  1900    54061   68400      0    1.75e+00    0    1.21e+00
2006 11 22  1905    54061   68700      0    1.74e+00    0    1.22e+00
2006 11 22  1910    54061   69000      0    1.76e+00    0    1.24e+00
2006 11 22  1915    54061   69300      0    1.78e+00    0    1.24e+00
2006 11 22  1920    54061   69600      0    1.75e+00    0    1.22e+00
2006 11 22  1925    54061   69900      0    1.74e+00    0    1.21e+00
2006 11 22  1930    54061   70200      0    1.73e+00    0    1.21e+00
2006 11 22  1935    54061   70500      0    1.76e+00    0    1.23e+00
2006 11 22  1940    54061   70800      0    1.79e+00    0    1.26e+00
2006 11 22  1945    54061   71100      0    1.66e+00    0    1.16e+00
2006 11 22  1950    54061   71400      0    1.79e+00    0    1.25e+00
2006 11 22  1955    54061   71700      0    1.75e+00    0    1.22e+00
2006 11 22  2000    54061   72000      0    1.75e+00    0    1.21e+00
2006 11 22  2005    54061   72300      0    1.72e+00    0    1.20e+00
2006 11 22  2010    54061   72600      0    1.72e+00    0    1.19e+00
2006 11 22  2015    54061   72900      0    1.76e+00    0    1.24e+00
2006 11 22  2020    54061   73200      0    1.75e+00    0    1.22e+00
2006 11 22  2025    54061   73500      0    1.73e+00    0    1.21e+00
2006 11 22  2030    54061   73800      0    1.73e+00    0    1.21e+00
2006 11 22  2035    54061   74100      0    1.73e+00    0    1.20e+00
2006 11 22  2040    54061   74400      0    1.71e+00    0    1.21e+00
2006 11 22  2045    54061   74700      9   -1.00e+05    9   -1.00e+05
2006 11 22  2050    54061   75000      9   -1.00e+05    9   -1.00e+05
2006 11 22  2055    54061   75300      9   -1.00e+05    9   -1.00e+05
2006 11 22  2100    54061   75600      9   -1.00e+05    9   -1.00e+05
2006 11 22  2105    54061   75900      9   -1.00e+05    9   -1.00e+05
2006 11 22  2110    54061   76200      9   -1.00e+05    9   -1.00e+05
2006 11 22  2115    54061   76500      0    1.74e+00    0    1.24e+00
2006 11 22  2120    54061   76800      0    1.77e+00    0    1.25e+00
2006 11 22  2125    54061   77100      0    1.77e+00    0    1.23e+00
2006 11 22  2130    54061   77400      0    1.74e+00    0    1.21e+00
2006 11 22  2135    54061   77700      0    1.71e+00    0    1.19e+00
2006 11 22  2140    54061   78000      0    1.75e+00    0    1.21e+00
2006 11 22  2145    54061   78300      0    1.73e+00    0    1.22e+00
2006 11 22  2150    54061   78600      0    1.72e+00    0    1.20e+00
2006 11 22  2155    54061   78900      0    1.74e+00    0    1.22e+00
2006 11 22  2200    54061   79200      0    1.74e+00    0    1.21e+00
2006 11 22  2205    54061   79500      0    1.73e+00    0    1.22e+00
2006 11 22  2210    54061   79800      0    1.73e+00    0    1.21e+00
2006 11 22  2215    54061   80100      0    1.73e+00    0    1.20e+00
2006 11 22  2220    54061   80400      0    1.75e+00    0    1.22e+00
2006 11 22  2225    54061   80700      0    1.73e+00    0    1.21e+00
2006 11 22  2230    54061   81000      0    1.76e+00    0    1.23e+00
2006 11 22  2235    54061   81300      0    1.77e+00    0    1.23e+00
2006 11 22  2240    54061   81600      0    1.77e+00    0    1.24e+00
2006 11 22  2245    54061   81900      0    1.77e+00    0    1.22e+00
2006 11 22  2250    54061   82200      0    1.73e+00    0    1.19e+00
2006 11 22  2255    54061   82500      0    1.73e+00    0    1.20e+00
2006 11 22  2300    54061   82800      0    1.74e+00    0    1.21e+00
2006 11 22  2305    54061   83100      0    1.70e+00    0    1.18e+00
2006 11 22  2310    54061   83400      0    1.76e+00    0    1.23e+00
2006 11 22  2315    54061   83700      0    1.74e+00    0    1.22e+00
2006 11 22  2320    54061   84000      0    1.76e+00    0    1.23e+00
2006 11 22  2325    54061   84300      0    1.76e+00    0    1.23e+00
2006 11 22  2330    54061   84600      0    1.77e+00    0    1.24e+00
2006 11 22  2335    54061   84900      0    1.76e+00    0    1.22e+00
2006 11 22  2340    54061   85200      0    1.74e+00    0    1.21e+00
2006 11 22  2345    54061   85500      0    1.77e+00    0    1.25e+00
2006 11 22  2350    54061   85800      0    1.72e+00    0    1.20e+00
2006 11 22  2355    54061   86100      0    1.77e+00    0    1.25e+00
