:Data_list: 20070509_ace_sis_5m.txt
:Created: 2007 May 10 0006 UT
# Prepared by the U.S. Dept. of Commerce, NOAA, Space Environment Center.
# Please send comments and suggestions to SEC.Webmaster@noaa.gov 
# 
# Units: proton flux p/cs2-sec-ster
# Status(S): 0 = nominal data, 1 to 8 = bad data record, 9 = no data
# Missing data values: -1.00e+05
# Source: ACE Satellite - Solar Isotope Spectrometer
#
# 5-minute averaged Real-time Integral Flux of High-energy Solar Protons
# 
#                 Modified Seconds
# UT Date   Time   Julian  of the      ---- Integral Proton Flux ----
# YR MO DA  HHMM     Day     Day       S    > 10 MeV    S    > 30 MeV
#--------------------------------------------------------------------
2007 05 09  0000    54229       0      0    1.81e+00    0    1.26e+00
2007 05 09  0005    54229     300      0    1.79e+00    0    1.25e+00
2007 05 09  0010    54229     600      0    1.82e+00    0    1.28e+00
2007 05 09  0015    54229     900      0    1.77e+00    0    1.23e+00
2007 05 09  0020    54229    1200      0    1.81e+00    0    1.27e+00
2007 05 09  0025    54229    1500      0    1.82e+00    0    1.29e+00
2007 05 09  0030    54229    1800      0    1.77e+00    0    1.24e+00
2007 05 09  0035    54229    2100      0    1.85e+00    0    1.31e+00
2007 05 09  0040    54229    2400      0    1.81e+00    0    1.27e+00
2007 05 09  0045    54229    2700      0    1.79e+00    0    1.26e+00
2007 05 09  0050    54229    3000      0    1.79e+00    0    1.26e+00
2007 05 09  0055    54229    3300      0    1.83e+00    0    1.27e+00
2007 05 09  0100    54229    3600      0    1.85e+00    0    1.29e+00
2007 05 09  0105    54229    3900      0    1.83e+00    0    1.28e+00
2007 05 09  0110    54229    4200      0    1.83e+00    0    1.29e+00
2007 05 09  0115    54229    4500      0    1.83e+00    0    1.28e+00
2007 05 09  0120    54229    4800      0    1.85e+00    0    1.29e+00
2007 05 09  0125    54229    5100      0    1.82e+00    0    1.27e+00
2007 05 09  0130    54229    5400      0    1.79e+00    0    1.25e+00
2007 05 09  0135    54229    5700      0    1.84e+00    0    1.29e+00
2007 05 09  0140    54229    6000      0    1.83e+00    0    1.28e+00
2007 05 09  0145    54229    6300      0    1.85e+00    0    1.29e+00
2007 05 09  0150    54229    6600      0    1.84e+00    0    1.28e+00
2007 05 09  0155    54229    6900      0    1.82e+00    0    1.28e+00
2007 05 09  0200    54229    7200      0    1.83e+00    0    1.28e+00
2007 05 09  0205    54229    7500      0    1.86e+00    0    1.31e+00
2007 05 09  0210    54229    7800      0    1.82e+00    0    1.27e+00
2007 05 09  0215    54229    8100      0    1.84e+00    0    1.29e+00
2007 05 09  0220    54229    8400      0    1.89e+00    0    1.33e+00
2007 05 09  0225    54229    8700      0    1.78e+00    0    1.23e+00
2007 05 09  0230    54229    9000      0    1.82e+00    0    1.27e+00
2007 05 09  0235    54229    9300      0    1.85e+00    0    1.30e+00
2007 05 09  0240    54229    9600      0    1.83e+00    0    1.28e+00
2007 05 09  0245    54229    9900      0    1.81e+00    0    1.27e+00
2007 05 09  0250    54229   10200      0    1.86e+00    0    1.32e+00
2007 05 09  0255    54229   10500      0    1.81e+00    0    1.27e+00
2007 05 09  0300    54229   10800      0    1.85e+00    0    1.28e+00
2007 05 09  0305    54229   11100      0    1.82e+00    0    1.28e+00
2007 05 09  0310    54229   11400      0    1.83e+00    0    1.29e+00
2007 05 09  0315    54229   11700      0    1.85e+00    0    1.31e+00
2007 05 09  0320    54229   12000      0    1.84e+00    0    1.29e+00
2007 05 09  0325    54229   12300      0    1.84e+00    0    1.28e+00
2007 05 09  0330    54229   12600      0    1.82e+00    0    1.27e+00
2007 05 09  0335    54229   12900      0    1.86e+00    0    1.31e+00
2007 05 09  0340    54229   13200      0    1.85e+00    0    1.29e+00
2007 05 09  0345    54229   13500      0    1.88e+00    0    1.32e+00
2007 05 09  0350    54229   13800      0    1.85e+00    0    1.30e+00
2007 05 09  0355    54229   14100      0    1.82e+00    0    1.27e+00
2007 05 09  0400    54229   14400      0    1.87e+00    0    1.31e+00
2007 05 09  0405    54229   14700      0    1.84e+00    0    1.29e+00
2007 05 09  0410    54229   15000      0    1.85e+00    0    1.30e+00
2007 05 09  0415    54229   15300      0    1.84e+00    0    1.28e+00
2007 05 09  0420    54229   15600      0    1.83e+00    0    1.29e+00
2007 05 09  0425    54229   15900      0    1.81e+00    0    1.26e+00
2007 05 09  0430    54229   16200      0    1.87e+00    0    1.30e+00
2007 05 09  0435    54229   16500      0    1.82e+00    0    1.26e+00
2007 05 09  0440    54229   16800      0    1.81e+00    0    1.27e+00
2007 05 09  0445    54229   17100      0    1.82e+00    0    1.27e+00
2007 05 09  0450    54229   17400      0    1.83e+00    0    1.28e+00
2007 05 09  0455    54229   17700      0    1.84e+00    0    1.28e+00
2007 05 09  0500    54229   18000      0    1.83e+00    0    1.28e+00
2007 05 09  0505    54229   18300      0    1.77e+00    0    1.25e+00
2007 05 09  0510    54229   18600      0    1.87e+00    0    1.32e+00
2007 05 09  0515    54229   18900      0    1.84e+00    0    1.29e+00
2007 05 09  0520    54229   19200      0    1.84e+00    0    1.29e+00
2007 05 09  0525    54229   19500      0    1.83e+00    0    1.27e+00
2007 05 09  0530    54229   19800      0    1.88e+00    0    1.30e+00
2007 05 09  0535    54229   20100      0    1.83e+00    0    1.28e+00
2007 05 09  0540    54229   20400      0    1.84e+00    0    1.28e+00
2007 05 09  0545    54229   20700      0    1.85e+00    0    1.31e+00
2007 05 09  0550    54229   21000      0    1.83e+00    0    1.28e+00
2007 05 09  0555    54229   21300      0    1.90e+00    0    1.32e+00
2007 05 09  0600    54229   21600      0    1.82e+00    0    1.27e+00
2007 05 09  0605    54229   21900      0    1.85e+00    0    1.30e+00
2007 05 09  0610    54229   22200      0    1.83e+00    0    1.27e+00
2007 05 09  0615    54229   22500      0    1.79e+00    0    1.25e+00
2007 05 09  0620    54229   22800      0    1.82e+00    0    1.27e+00
2007 05 09  0625    54229   23100      0    1.84e+00    0    1.30e+00
2007 05 09  0630    54229   23400      0    1.83e+00    0    1.28e+00
2007 05 09  0635    54229   23700      0    1.85e+00    0    1.28e+00
2007 05 09  0640    54229   24000      0    1.87e+00    0    1.32e+00
2007 05 09  0645    54229   24300      0    1.84e+00    0    1.29e+00
2007 05 09  0650    54229   24600      0    1.84e+00    0    1.29e+00
2007 05 09  0655    54229   24900      0    1.83e+00    0    1.27e+00
2007 05 09  0700    54229   25200      0    1.83e+00    0    1.28e+00
2007 05 09  0705    54229   25500      0    1.83e+00    0    1.26e+00
2007 05 09  0710    54229   25800      0    1.80e+00    0    1.26e+00
2007 05 09  0715    54229   26100      0    1.80e+00    0    1.27e+00
2007 05 09  0720    54229   26400      0    1.84e+00    0    1.29e+00
2007 05 09  0725    54229   26700      0    1.83e+00    0    1.29e+00
2007 05 09  0730    54229   27000      0    1.84e+00    0    1.30e+00
2007 05 09  0735    54229   27300      0    1.85e+00    0    1.30e+00
2007 05 09  0740    54229   27600      0    1.82e+00    0    1.29e+00
2007 05 09  0745    54229   27900      0    1.89e+00    0    1.31e+00
2007 05 09  0750    54229   28200      0    1.82e+00    0    1.28e+00
2007 05 09  0755    54229   28500      0    1.83e+00    0    1.27e+00
2007 05 09  0800    54229   28800      0    1.84e+00    0    1.29e+00
2007 05 09  0805    54229   29100      0    1.81e+00    0    1.28e+00
2007 05 09  0810    54229   29400      0    1.79e+00    0    1.26e+00
2007 05 09  0815    54229   29700      0    1.86e+00    0    1.31e+00
2007 05 09  0820    54229   30000      0    1.84e+00    0    1.29e+00
2007 05 09  0825    54229   30300      0    1.84e+00    0    1.29e+00
2007 05 09  0830    54229   30600      0    1.84e+00    0    1.29e+00
2007 05 09  0835    54229   30900      0    1.88e+00    0    1.30e+00
2007 05 09  0840    54229   31200      0    1.84e+00    0    1.28e+00
2007 05 09  0845    54229   31500      0    1.86e+00    0    1.30e+00
2007 05 09  0850    54229   31800      0    1.84e+00    0    1.30e+00
2007 05 09  0855    54229   32100      0    1.85e+00    0    1.29e+00
2007 05 09  0900    54229   32400      0    1.80e+00    0    1.25e+00
2007 05 09  0905    54229   32700      0    1.87e+00    0    1.33e+00
2007 05 09  0910    54229   33000      0    1.87e+00    0    1.30e+00
2007 05 09  0915    54229   33300      0    1.82e+00    0    1.27e+00
2007 05 09  0920    54229   33600      0    1.79e+00    0    1.25e+00
2007 05 09  0925    54229   33900      0    1.81e+00    0    1.25e+00
2007 05 09  0930    54229   34200      0    1.88e+00    0    1.31e+00
2007 05 09  0935    54229   34500      0    1.87e+00    0    1.30e+00
2007 05 09  0940    54229   34800      0    1.88e+00    0    1.31e+00
2007 05 09  0945    54229   35100      0    1.84e+00    0    1.29e+00
2007 05 09  0950    54229   35400      0    1.86e+00    0    1.31e+00
2007 05 09  0955    54229   35700      0    1.70e+00    0    1.18e+00
2007 05 09  1000    54229   36000      0    1.82e+00    0    1.28e+00
2007 05 09  1005    54229   36300      0    1.81e+00    0    1.26e+00
2007 05 09  1010    54229   36600      0    1.83e+00    0    1.29e+00
2007 05 09  1015    54229   36900      0    1.87e+00    0    1.32e+00
2007 05 09  1020    54229   37200      0    1.80e+00    0    1.26e+00
2007 05 09  1025    54229   37500      0    1.83e+00    0    1.28e+00
2007 05 09  1030    54229   37800      0    1.82e+00    0    1.28e+00
2007 05 09  1035    54229   38100      0    1.79e+00    0    1.26e+00
2007 05 09  1040    54229   38400      0    1.82e+00    0    1.27e+00
2007 05 09  1045    54229   38700      0    1.82e+00    0    1.28e+00
2007 05 09  1050    54229   39000      0    1.84e+00    0    1.29e+00
2007 05 09  1055    54229   39300      0    1.82e+00    0    1.28e+00
2007 05 09  1100    54229   39600      0    1.80e+00    0    1.27e+00
2007 05 09  1105    54229   39900      0    1.78e+00    0    1.23e+00
2007 05 09  1110    54229   40200      0    1.78e+00    0    1.25e+00
2007 05 09  1115    54229   40500      0    1.84e+00    0    1.29e+00
2007 05 09  1120    54229   40800      0    1.85e+00    0    1.30e+00
2007 05 09  1125    54229   41100      0    1.82e+00    0    1.28e+00
2007 05 09  1130    54229   41400      0    1.83e+00    0    1.28e+00
2007 05 09  1135    54229   41700      0    1.84e+00    0    1.28e+00
2007 05 09  1140    54229   42000      0    1.78e+00    0    1.24e+00
2007 05 09  1145    54229   42300      0    1.83e+00    0    1.28e+00
2007 05 09  1150    54229   42600      0    1.84e+00    0    1.27e+00
2007 05 09  1155    54229   42900      0    1.86e+00    0    1.30e+00
2007 05 09  1200    54229   43200      0    1.86e+00    0    1.30e+00
2007 05 09  1205    54229   43500      0    1.84e+00    0    1.28e+00
2007 05 09  1210    54229   43800      0    1.90e+00    0    1.34e+00
2007 05 09  1215    54229   44100      0    1.85e+00    0    1.31e+00
2007 05 09  1220    54229   44400      0    1.84e+00    0    1.29e+00
2007 05 09  1225    54229   44700      0    1.84e+00    0    1.29e+00
2007 05 09  1230    54229   45000      0    1.86e+00    0    1.30e+00
2007 05 09  1235    54229   45300      0    1.83e+00    0    1.27e+00
2007 05 09  1240    54229   45600      0    1.83e+00    0    1.26e+00
2007 05 09  1245    54229   45900      0    1.87e+00    0    1.32e+00
2007 05 09  1250    54229   46200      0    1.82e+00    0    1.28e+00
2007 05 09  1255    54229   46500      0    1.85e+00    0    1.31e+00
2007 05 09  1300    54229   46800      0    1.82e+00    0    1.27e+00
2007 05 09  1305    54229   47100      0    1.86e+00    0    1.30e+00
2007 05 09  1310    54229   47400      0    1.87e+00    0    1.30e+00
2007 05 09  1315    54229   47700      0    1.86e+00    0    1.29e+00
2007 05 09  1320    54229   48000      0    1.85e+00    0    1.28e+00
2007 05 09  1325    54229   48300      0    1.80e+00    0    1.26e+00
2007 05 09  1330    54229   48600      0    1.81e+00    0    1.26e+00
2007 05 09  1335    54229   48900      0    1.83e+00    0    1.28e+00
2007 05 09  1340    54229   49200      0    1.81e+00    0    1.27e+00
2007 05 09  1345    54229   49500      0    1.86e+00    0    1.31e+00
2007 05 09  1350    54229   49800      0    1.83e+00    0    1.29e+00
2007 05 09  1355    54229   50100      0    1.83e+00    0    1.27e+00
2007 05 09  1400    54229   50400      0    1.79e+00    0    1.26e+00
2007 05 09  1405    54229   50700      0    1.86e+00    0    1.30e+00
2007 05 09  1410    54229   51000      0    1.93e+00    0    1.36e+00
2007 05 09  1415    54229   51300      0    1.85e+00    0    1.28e+00
2007 05 09  1420    54229   51600      0    1.84e+00    0    1.28e+00
2007 05 09  1425    54229   51900      0    1.88e+00    0    1.32e+00
2007 05 09  1430    54229   52200      0    1.85e+00    0    1.28e+00
2007 05 09  1435    54229   52500      0    1.87e+00    0    1.33e+00
2007 05 09  1440    54229   52800      0    1.83e+00    0    1.28e+00
2007 05 09  1445    54229   53100      0    1.85e+00    0    1.28e+00
2007 05 09  1450    54229   53400      0    1.82e+00    0    1.27e+00
2007 05 09  1455    54229   53700      0    1.87e+00    0    1.31e+00
2007 05 09  1500    54229   54000      0    1.83e+00    0    1.28e+00
2007 05 09  1505    54229   54300      0    1.83e+00    0    1.29e+00
2007 05 09  1510    54229   54600      0    1.86e+00    0    1.30e+00
2007 05 09  1515    54229   54900      0    1.80e+00    0    1.26e+00
2007 05 09  1520    54229   55200      0    1.81e+00    0    1.26e+00
2007 05 09  1525    54229   55500      0    1.84e+00    0    1.29e+00
2007 05 09  1530    54229   55800      0    1.81e+00    0    1.26e+00
2007 05 09  1535    54229   56100      0    1.79e+00    0    1.23e+00
2007 05 09  1540    54229   56400      0    1.82e+00    0    1.26e+00
2007 05 09  1545    54229   56700      0    1.84e+00    0    1.29e+00
2007 05 09  1550    54229   57000      0    1.88e+00    0    1.32e+00
2007 05 09  1555    54229   57300      0    1.88e+00    0    1.31e+00
2007 05 09  1600    54229   57600      0    1.83e+00    0    1.29e+00
2007 05 09  1605    54229   57900      0    1.83e+00    0    1.28e+00
2007 05 09  1610    54229   58200      0    1.82e+00    0    1.26e+00
2007 05 09  1615    54229   58500      0    1.85e+00    0    1.30e+00
2007 05 09  1620    54229   58800      0    1.77e+00    0    1.25e+00
2007 05 09  1625    54229   59100      0    1.81e+00    0    1.27e+00
2007 05 09  1630    54229   59400      0    1.84e+00    0    1.29e+00
2007 05 09  1635    54229   59700      0    1.84e+00    0    1.29e+00
2007 05 09  1640    54229   60000      0    1.84e+00    0    1.30e+00
2007 05 09  1645    54229   60300      0    1.90e+00    0    1.33e+00
2007 05 09  1650    54229   60600      0    1.83e+00    0    1.28e+00
2007 05 09  1655    54229   60900      0    1.87e+00    0    1.32e+00
2007 05 09  1700    54229   61200      0    1.84e+00    0    1.29e+00
2007 05 09  1705    54229   61500      0    1.80e+00    0    1.25e+00
2007 05 09  1710    54229   61800      0    1.88e+00    0    1.32e+00
2007 05 09  1715    54229   62100      0    1.80e+00    0    1.25e+00
2007 05 09  1720    54229   62400      0    1.84e+00    0    1.29e+00
2007 05 09  1725    54229   62700      0    1.86e+00    0    1.30e+00
2007 05 09  1730    54229   63000      0    1.92e+00    0    1.36e+00
2007 05 09  1735    54229   63300      0    1.88e+00    0    1.31e+00
2007 05 09  1740    54229   63600      0    1.84e+00    0    1.28e+00
2007 05 09  1745    54229   63900      0    1.86e+00    0    1.31e+00
2007 05 09  1750    54229   64200      0    1.87e+00    0    1.29e+00
2007 05 09  1755    54229   64500      0    1.82e+00    0    1.28e+00
2007 05 09  1800    54229   64800      0    1.83e+00    0    1.29e+00
2007 05 09  1805    54229   65100      0    1.88e+00    0    1.33e+00
2007 05 09  1810    54229   65400      0    1.83e+00    0    1.27e+00
2007 05 09  1815    54229   65700      0    1.85e+00    0    1.29e+00
2007 05 09  1820    54229   66000      0    1.82e+00    0    1.28e+00
2007 05 09  1825    54229   66300      0    1.83e+00    0    1.27e+00
2007 05 09  1830    54229   66600      0    1.88e+00    0    1.32e+00
2007 05 09  1835    54229   66900      0    1.88e+00    0    1.31e+00
2007 05 09  1840    54229   67200      0    1.83e+00    0    1.29e+00
2007 05 09  1845    54229   67500      0    1.84e+00    0    1.30e+00
2007 05 09  1850    54229   67800      0    1.82e+00    0    1.27e+00
2007 05 09  1855    54229   68100      0    1.84e+00    0    1.29e+00
2007 05 09  1900    54229   68400      0    1.88e+00    0    1.33e+00
2007 05 09  1905    54229   68700      0    1.81e+00    0    1.27e+00
2007 05 09  1910    54229   69000      0    1.78e+00    0    1.24e+00
2007 05 09  1915    54229   69300      0    1.82e+00    0    1.28e+00
2007 05 09  1920    54229   69600      0    1.88e+00    0    1.32e+00
2007 05 09  1925    54229   69900      0    1.89e+00    0    1.34e+00
2007 05 09  1930    54229   70200      0    1.75e+00    0    1.23e+00
2007 05 09  1935    54229   70500      0    1.81e+00    0    1.27e+00
2007 05 09  1940    54229   70800      0    1.84e+00    0    1.28e+00
2007 05 09  1945    54229   71100      0    1.83e+00    0    1.28e+00
2007 05 09  1950    54229   71400      0    1.85e+00    0    1.29e+00
2007 05 09  1955    54229   71700      0    1.86e+00    0    1.30e+00
2007 05 09  2000    54229   72000      0    1.87e+00    0    1.31e+00
2007 05 09  2005    54229   72300      0    1.82e+00    0    1.27e+00
2007 05 09  2010    54229   72600      0    1.83e+00    0    1.27e+00
2007 05 09  2015    54229   72900      0    1.87e+00    0    1.32e+00
2007 05 09  2020    54229   73200      0    1.86e+00    0    1.31e+00
2007 05 09  2025    54229   73500      0    1.83e+00    0    1.28e+00
2007 05 09  2030    54229   73800      0    1.85e+00    0    1.29e+00
2007 05 09  2035    54229   74100      0    1.89e+00    0    1.33e+00
2007 05 09  2040    54229   74400      0    1.92e+00    0    1.33e+00
2007 05 09  2045    54229   74700      0    1.90e+00    0    1.32e+00
2007 05 09  2050    54229   75000      0    1.86e+00    0    1.30e+00
2007 05 09  2055    54229   75300      0    1.87e+00    0    1.31e+00
2007 05 09  2100    54229   75600      0    1.86e+00    0    1.29e+00
2007 05 09  2105    54229   75900      0    1.91e+00    0    1.36e+00
2007 05 09  2110    54229   76200      0    1.87e+00    0    1.31e+00
2007 05 09  2115    54229   76500      0    1.83e+00    0    1.29e+00
2007 05 09  2120    54229   76800      0    1.82e+00    0    1.28e+00
2007 05 09  2125    54229   77100      0    1.87e+00    0    1.31e+00
2007 05 09  2130    54229   77400      0    1.87e+00    0    1.30e+00
2007 05 09  2135    54229   77700      0    1.86e+00    0    1.29e+00
2007 05 09  2140    54229   78000      0    1.84e+00    0    1.29e+00
2007 05 09  2145    54229   78300      0    1.82e+00    0    1.28e+00
2007 05 09  2150    54229   78600      0    1.85e+00    0    1.31e+00
2007 05 09  2155    54229   78900      0    1.88e+00    0    1.32e+00
2007 05 09  2200    54229   79200      0    1.86e+00    0    1.30e+00
2007 05 09  2205    54229   79500      0    1.83e+00    0    1.29e+00
2007 05 09  2210    54229   79800      0    1.86e+00    0    1.31e+00
2007 05 09  2215    54229   80100      0    1.82e+00    0    1.28e+00
2007 05 09  2220    54229   80400      0    1.87e+00    0    1.30e+00
2007 05 09  2225    54229   80700      0    1.88e+00    0    1.30e+00
2007 05 09  2230    54229   81000      0    1.84e+00    0    1.28e+00
2007 05 09  2235    54229   81300      0    1.78e+00    0    1.24e+00
2007 05 09  2240    54229   81600      0    1.83e+00    0    1.28e+00
2007 05 09  2245    54229   81900      0    1.88e+00    0    1.31e+00
2007 05 09  2250    54229   82200      0    1.87e+00    0    1.32e+00
2007 05 09  2255    54229   82500      0    1.84e+00    0    1.28e+00
2007 05 09  2300    54229   82800      0    1.84e+00    0    1.30e+00
2007 05 09  2305    54229   83100      0    1.83e+00    0    1.28e+00
2007 05 09  2310    54229   83400      0    1.84e+00    0    1.29e+00
2007 05 09  2315    54229   83700      0    1.88e+00    0    1.31e+00
2007 05 09  2320    54229   84000      0    1.80e+00    0    1.26e+00
2007 05 09  2325    54229   84300      0    1.80e+00    0    1.26e+00
2007 05 09  2330    54229   84600      0    1.86e+00    0    1.29e+00
2007 05 09  2335    54229   84900      0    1.83e+00    0    1.28e+00
2007 05 09  2340    54229   85200      0    1.88e+00    0    1.33e+00
2007 05 09  2345    54229   85500      0    1.89e+00    0    1.32e+00
2007 05 09  2350    54229   85800      0    1.84e+00    0    1.30e+00
2007 05 09  2355    54229   86100      0    1.85e+00    0    1.28e+00
