:Data_list: 20070915_ace_sis_5m.txt
:Created: 2007 Sep 16 0011 UT
# Prepared by the U.S. Dept. of Commerce, NOAA, Space Environment Center.
# Please send comments and suggestions to SEC.Webmaster@noaa.gov 
# 
# Units: proton flux p/cs2-sec-ster
# Status(S): 0 = nominal data, 1 to 8 = bad data record, 9 = no data
# Missing data values: -1.00e+05
# Source: ACE Satellite - Solar Isotope Spectrometer
#
# 5-minute averaged Real-time Integral Flux of High-energy Solar Protons
# 
#                 Modified Seconds
# UT Date   Time   Julian  of the      ---- Integral Proton Flux ----
# YR MO DA  HHMM     Day     Day       S    > 10 MeV    S    > 30 MeV
#--------------------------------------------------------------------
2007 09 15  0000    54358       0      0    1.97e+00    0    1.37e+00
2007 09 15  0005    54358     300      0    1.96e+00    0    1.37e+00
2007 09 15  0010    54358     600      0    1.94e+00    0    1.36e+00
2007 09 15  0015    54358     900      0    1.95e+00    0    1.36e+00
2007 09 15  0020    54358    1200      0    1.98e+00    0    1.40e+00
2007 09 15  0025    54358    1500      0    2.00e+00    0    1.41e+00
2007 09 15  0030    54358    1800      0    1.95e+00    0    1.37e+00
2007 09 15  0035    54358    2100      0    1.97e+00    0    1.40e+00
2007 09 15  0040    54358    2400      0    1.93e+00    0    1.35e+00
2007 09 15  0045    54358    2700      0    1.98e+00    0    1.39e+00
2007 09 15  0050    54358    3000      0    1.93e+00    0    1.35e+00
2007 09 15  0055    54358    3300      0    1.95e+00    0    1.36e+00
2007 09 15  0100    54358    3600      0    1.97e+00    0    1.37e+00
2007 09 15  0105    54358    3900      0    1.96e+00    0    1.36e+00
2007 09 15  0110    54358    4200      0    2.00e+00    0    1.39e+00
2007 09 15  0115    54358    4500      0    1.96e+00    0    1.36e+00
2007 09 15  0120    54358    4800      0    1.98e+00    0    1.38e+00
2007 09 15  0125    54358    5100      0    1.96e+00    0    1.38e+00
2007 09 15  0130    54358    5400      0    1.93e+00    0    1.35e+00
2007 09 15  0135    54358    5700      0    2.01e+00    0    1.40e+00
2007 09 15  0140    54358    6000      0    1.92e+00    0    1.34e+00
2007 09 15  0145    54358    6300      0    1.85e+00    0    1.30e+00
2007 09 15  0150    54358    6600      0    1.96e+00    0    1.38e+00
2007 09 15  0155    54358    6900      0    1.97e+00    0    1.38e+00
2007 09 15  0200    54358    7200      0    1.98e+00    0    1.38e+00
2007 09 15  0205    54358    7500      0    2.01e+00    0    1.38e+00
2007 09 15  0210    54358    7800      0    1.91e+00    0    1.35e+00
2007 09 15  0215    54358    8100      0    1.94e+00    0    1.36e+00
2007 09 15  0220    54358    8400      0    1.92e+00    0    1.34e+00
2007 09 15  0225    54358    8700      0    1.93e+00    0    1.33e+00
2007 09 15  0230    54358    9000      0    1.94e+00    0    1.35e+00
2007 09 15  0235    54358    9300      0    1.92e+00    0    1.34e+00
2007 09 15  0240    54358    9600      0    1.92e+00    0    1.34e+00
2007 09 15  0245    54358    9900      0    1.89e+00    0    1.33e+00
2007 09 15  0250    54358   10200      0    1.96e+00    0    1.37e+00
2007 09 15  0255    54358   10500      0    1.93e+00    0    1.35e+00
2007 09 15  0300    54358   10800      0    1.97e+00    0    1.39e+00
2007 09 15  0305    54358   11100      0    1.91e+00    0    1.34e+00
2007 09 15  0310    54358   11400      0    1.94e+00    0    1.35e+00
2007 09 15  0315    54358   11700      0    1.94e+00    0    1.36e+00
2007 09 15  0320    54358   12000      0    1.95e+00    0    1.37e+00
2007 09 15  0325    54358   12300      0    1.91e+00    0    1.34e+00
2007 09 15  0330    54358   12600      0    1.92e+00    0    1.35e+00
2007 09 15  0335    54358   12900      0    1.89e+00    0    1.32e+00
2007 09 15  0340    54358   13200      0    1.91e+00    0    1.33e+00
2007 09 15  0345    54358   13500      0    1.91e+00    0    1.34e+00
2007 09 15  0350    54358   13800      0    1.89e+00    0    1.33e+00
2007 09 15  0355    54358   14100      0    1.94e+00    0    1.36e+00
2007 09 15  0400    54358   14400      0    1.93e+00    0    1.35e+00
2007 09 15  0405    54358   14700      0    1.95e+00    0    1.37e+00
2007 09 15  0410    54358   15000      0    1.93e+00    0    1.36e+00
2007 09 15  0415    54358   15300      0    1.96e+00    0    1.37e+00
2007 09 15  0420    54358   15600      0    1.94e+00    0    1.36e+00
2007 09 15  0425    54358   15900      0    1.88e+00    0    1.31e+00
2007 09 15  0430    54358   16200      0    1.95e+00    0    1.37e+00
2007 09 15  0435    54358   16500      0    1.99e+00    0    1.39e+00
2007 09 15  0440    54358   16800      0    1.91e+00    0    1.33e+00
2007 09 15  0445    54358   17100      0    1.91e+00    0    1.34e+00
2007 09 15  0450    54358   17400      0    1.91e+00    0    1.34e+00
2007 09 15  0455    54358   17700      0    1.92e+00    0    1.33e+00
2007 09 15  0500    54358   18000      0    1.94e+00    0    1.36e+00
2007 09 15  0505    54358   18300      0    1.97e+00    0    1.38e+00
2007 09 15  0510    54358   18600      0    1.97e+00    0    1.38e+00
2007 09 15  0515    54358   18900      0    1.96e+00    0    1.37e+00
2007 09 15  0520    54358   19200      0    1.96e+00    0    1.37e+00
2007 09 15  0525    54358   19500      0    1.95e+00    0    1.35e+00
2007 09 15  0530    54358   19800      0    1.89e+00    0    1.33e+00
2007 09 15  0535    54358   20100      0    1.97e+00    0    1.38e+00
2007 09 15  0540    54358   20400      0    2.00e+00    0    1.41e+00
2007 09 15  0545    54358   20700      0    1.90e+00    0    1.32e+00
2007 09 15  0550    54358   21000      0    1.94e+00    0    1.37e+00
2007 09 15  0555    54358   21300      0    1.98e+00    0    1.39e+00
2007 09 15  0600    54358   21600      0    1.91e+00    0    1.33e+00
2007 09 15  0605    54358   21900      0    1.95e+00    0    1.37e+00
2007 09 15  0610    54358   22200      0    1.96e+00    0    1.38e+00
2007 09 15  0615    54358   22500      0    1.91e+00    0    1.35e+00
2007 09 15  0620    54358   22800      0    1.98e+00    0    1.38e+00
2007 09 15  0625    54358   23100      0    1.95e+00    0    1.36e+00
2007 09 15  0630    54358   23400      0    1.94e+00    0    1.34e+00
2007 09 15  0635    54358   23700      0    1.94e+00    0    1.36e+00
2007 09 15  0640    54358   24000      0    1.94e+00    0    1.35e+00
2007 09 15  0645    54358   24300      0    1.98e+00    0    1.39e+00
2007 09 15  0650    54358   24600      0    1.97e+00    0    1.40e+00
2007 09 15  0655    54358   24900      0    1.93e+00    0    1.34e+00
2007 09 15  0700    54358   25200      0    1.92e+00    0    1.35e+00
2007 09 15  0705    54358   25500      0    1.96e+00    0    1.36e+00
2007 09 15  0710    54358   25800      0    1.92e+00    0    1.36e+00
2007 09 15  0715    54358   26100      0    1.96e+00    0    1.39e+00
2007 09 15  0720    54358   26400      0    1.98e+00    0    1.38e+00
2007 09 15  0725    54358   26700      0    1.94e+00    0    1.36e+00
2007 09 15  0730    54358   27000      0    1.90e+00    0    1.34e+00
2007 09 15  0735    54358   27300      0    1.97e+00    0    1.37e+00
2007 09 15  0740    54358   27600      0    1.96e+00    0    1.37e+00
2007 09 15  0745    54358   27900      0    1.94e+00    0    1.35e+00
2007 09 15  0750    54358   28200      0    2.00e+00    0    1.41e+00
2007 09 15  0755    54358   28500      0    1.96e+00    0    1.37e+00
2007 09 15  0800    54358   28800      0    1.96e+00    0    1.36e+00
2007 09 15  0805    54358   29100      0    1.94e+00    0    1.36e+00
2007 09 15  0810    54358   29400      0    1.98e+00    0    1.39e+00
2007 09 15  0815    54358   29700      0    1.97e+00    0    1.38e+00
2007 09 15  0820    54358   30000      0    1.97e+00    0    1.38e+00
2007 09 15  0825    54358   30300      0    1.96e+00    0    1.36e+00
2007 09 15  0830    54358   30600      0    1.96e+00    0    1.38e+00
2007 09 15  0835    54358   30900      0    1.94e+00    0    1.36e+00
2007 09 15  0840    54358   31200      0    1.93e+00    0    1.36e+00
2007 09 15  0845    54358   31500      0    1.96e+00    0    1.38e+00
2007 09 15  0850    54358   31800      0    1.97e+00    0    1.39e+00
2007 09 15  0855    54358   32100      0    1.93e+00    0    1.35e+00
2007 09 15  0900    54358   32400      0    1.95e+00    0    1.35e+00
2007 09 15  0905    54358   32700      0    1.95e+00    0    1.36e+00
2007 09 15  0910    54358   33000      0    1.91e+00    0    1.34e+00
2007 09 15  0915    54358   33300      0    1.94e+00    0    1.37e+00
2007 09 15  0920    54358   33600      0    1.99e+00    0    1.40e+00
2007 09 15  0925    54358   33900      0    1.98e+00    0    1.39e+00
2007 09 15  0930    54358   34200      0    1.91e+00    0    1.34e+00
2007 09 15  0935    54358   34500      0    1.98e+00    0    1.39e+00
2007 09 15  0940    54358   34800      0    1.95e+00    0    1.36e+00
2007 09 15  0945    54358   35100      0    1.94e+00    0    1.36e+00
2007 09 15  0950    54358   35400      0    1.96e+00    0    1.39e+00
2007 09 15  0955    54358   35700      0    1.94e+00    0    1.34e+00
2007 09 15  1000    54358   36000      0    1.95e+00    0    1.36e+00
2007 09 15  1005    54358   36300      0    1.93e+00    0    1.34e+00
2007 09 15  1010    54358   36600      0    1.98e+00    0    1.39e+00
2007 09 15  1015    54358   36900      0    1.98e+00    0    1.39e+00
2007 09 15  1020    54358   37200      0    1.92e+00    0    1.34e+00
2007 09 15  1025    54358   37500      0    1.91e+00    0    1.34e+00
2007 09 15  1030    54358   37800      0    2.00e+00    0    1.40e+00
2007 09 15  1035    54358   38100      0    1.92e+00    0    1.36e+00
2007 09 15  1040    54358   38400      0    1.95e+00    0    1.38e+00
2007 09 15  1045    54358   38700      0    1.92e+00    0    1.33e+00
2007 09 15  1050    54358   39000      0    1.95e+00    0    1.36e+00
2007 09 15  1055    54358   39300      0    1.99e+00    0    1.40e+00
2007 09 15  1100    54358   39600      0    1.95e+00    0    1.34e+00
2007 09 15  1105    54358   39900      0    1.92e+00    0    1.35e+00
2007 09 15  1110    54358   40200      0    1.94e+00    0    1.35e+00
2007 09 15  1115    54358   40500      0    1.98e+00    0    1.39e+00
2007 09 15  1120    54358   40800      0    1.96e+00    0    1.37e+00
2007 09 15  1125    54358   41100      0    1.95e+00    0    1.36e+00
2007 09 15  1130    54358   41400      0    1.95e+00    0    1.36e+00
2007 09 15  1135    54358   41700      0    1.94e+00    0    1.35e+00
2007 09 15  1140    54358   42000      0    1.92e+00    0    1.33e+00
2007 09 15  1145    54358   42300      0    1.93e+00    0    1.35e+00
2007 09 15  1150    54358   42600      0    1.96e+00    0    1.36e+00
2007 09 15  1155    54358   42900      0    1.96e+00    0    1.37e+00
2007 09 15  1200    54358   43200      0    1.95e+00    0    1.36e+00
2007 09 15  1205    54358   43500      0    1.94e+00    0    1.37e+00
2007 09 15  1210    54358   43800      0    1.97e+00    0    1.38e+00
2007 09 15  1215    54358   44100      0    1.97e+00    0    1.38e+00
2007 09 15  1220    54358   44400      0    1.96e+00    0    1.36e+00
2007 09 15  1225    54358   44700      0    1.95e+00    0    1.35e+00
2007 09 15  1230    54358   45000      0    1.97e+00    0    1.38e+00
2007 09 15  1235    54358   45300      0    1.99e+00    0    1.39e+00
2007 09 15  1240    54358   45600      0    1.95e+00    0    1.35e+00
2007 09 15  1245    54358   45900      0    1.96e+00    0    1.37e+00
2007 09 15  1250    54358   46200      0    1.97e+00    0    1.37e+00
2007 09 15  1255    54358   46500      0    1.98e+00    0    1.38e+00
2007 09 15  1300    54358   46800      0    1.99e+00    0    1.39e+00
2007 09 15  1305    54358   47100      0    1.99e+00    0    1.39e+00
2007 09 15  1310    54358   47400      0    1.95e+00    0    1.38e+00
2007 09 15  1315    54358   47700      0    1.97e+00    0    1.39e+00
2007 09 15  1320    54358   48000      0    1.95e+00    0    1.36e+00
2007 09 15  1325    54358   48300      0    1.99e+00    0    1.40e+00
2007 09 15  1330    54358   48600      0    2.02e+00    0    1.44e+00
2007 09 15  1335    54358   48900      0    1.93e+00    0    1.35e+00
2007 09 15  1340    54358   49200      0    1.92e+00    0    1.34e+00
2007 09 15  1345    54358   49500      0    1.96e+00    0    1.37e+00
2007 09 15  1350    54358   49800      0    1.94e+00    0    1.36e+00
2007 09 15  1355    54358   50100      0    1.96e+00    0    1.38e+00
2007 09 15  1400    54358   50400      0    1.93e+00    0    1.37e+00
2007 09 15  1405    54358   50700      0    1.91e+00    0    1.35e+00
2007 09 15  1410    54358   51000      0    1.93e+00    0    1.36e+00
2007 09 15  1415    54358   51300      0    1.94e+00    0    1.35e+00
2007 09 15  1420    54358   51600      0    1.90e+00    0    1.32e+00
2007 09 15  1425    54358   51900      0    1.92e+00    0    1.34e+00
2007 09 15  1430    54358   52200      0    1.89e+00    0    1.31e+00
2007 09 15  1435    54358   52500      0    1.92e+00    0    1.34e+00
2007 09 15  1440    54358   52800      0    1.94e+00    0    1.36e+00
2007 09 15  1445    54358   53100      0    1.93e+00    0    1.35e+00
2007 09 15  1450    54358   53400      0    1.93e+00    0    1.34e+00
2007 09 15  1455    54358   53700      0    1.92e+00    0    1.34e+00
2007 09 15  1500    54358   54000      0    1.93e+00    0    1.35e+00
2007 09 15  1505    54358   54300      0    1.98e+00    0    1.38e+00
2007 09 15  1510    54358   54600      0    1.95e+00    0    1.36e+00
2007 09 15  1515    54358   54900      0    1.95e+00    0    1.37e+00
2007 09 15  1520    54358   55200      0    1.89e+00    0    1.32e+00
2007 09 15  1525    54358   55500      0    1.94e+00    0    1.36e+00
2007 09 15  1530    54358   55800      0    1.96e+00    0    1.37e+00
2007 09 15  1535    54358   56100      0    2.00e+00    0    1.40e+00
2007 09 15  1540    54358   56400      0    1.99e+00    0    1.39e+00
2007 09 15  1545    54358   56700      0    1.91e+00    0    1.34e+00
2007 09 15  1550    54358   57000      0    1.96e+00    0    1.37e+00
2007 09 15  1555    54358   57300      0    1.99e+00    0    1.39e+00
2007 09 15  1600    54358   57600      0    1.95e+00    0    1.37e+00
2007 09 15  1605    54358   57900      0    1.92e+00    0    1.35e+00
2007 09 15  1610    54358   58200      0    1.93e+00    0    1.35e+00
2007 09 15  1615    54358   58500      0    1.90e+00    0    1.33e+00
2007 09 15  1620    54358   58800      0    1.96e+00    0    1.37e+00
2007 09 15  1625    54358   59100      0    1.92e+00    0    1.33e+00
2007 09 15  1630    54358   59400      0    1.83e+00    0    1.28e+00
2007 09 15  1635    54358   59700      0    1.91e+00    0    1.34e+00
2007 09 15  1640    54358   60000      0    1.92e+00    0    1.35e+00
2007 09 15  1645    54358   60300      0    1.91e+00    0    1.34e+00
2007 09 15  1650    54358   60600      0    1.90e+00    0    1.31e+00
2007 09 15  1655    54358   60900      0    1.89e+00    0    1.31e+00
2007 09 15  1700    54358   61200      0    1.91e+00    0    1.34e+00
2007 09 15  1705    54358   61500      0    1.91e+00    0    1.34e+00
2007 09 15  1710    54358   61800      0    1.90e+00    0    1.32e+00
2007 09 15  1715    54358   62100      0    1.88e+00    0    1.32e+00
2007 09 15  1720    54358   62400      0    1.89e+00    0    1.33e+00
2007 09 15  1725    54358   62700      0    1.86e+00    0    1.30e+00
2007 09 15  1730    54358   63000      0    1.95e+00    0    1.37e+00
2007 09 15  1735    54358   63300      0    1.95e+00    0    1.37e+00
2007 09 15  1740    54358   63600      0    1.92e+00    0    1.33e+00
2007 09 15  1745    54358   63900      0    1.87e+00    0    1.31e+00
2007 09 15  1750    54358   64200      0    1.92e+00    0    1.35e+00
2007 09 15  1755    54358   64500      0    1.93e+00    0    1.36e+00
2007 09 15  1800    54358   64800      0    1.98e+00    0    1.40e+00
2007 09 15  1805    54358   65100      0    1.99e+00    0    1.38e+00
2007 09 15  1810    54358   65400      0    1.95e+00    0    1.36e+00
2007 09 15  1815    54358   65700      0    1.92e+00    0    1.34e+00
2007 09 15  1820    54358   66000      0    1.94e+00    0    1.36e+00
2007 09 15  1825    54358   66300      0    2.00e+00    0    1.40e+00
2007 09 15  1830    54358   66600      0    1.96e+00    0    1.38e+00
2007 09 15  1835    54358   66900      0    1.91e+00    0    1.34e+00
2007 09 15  1840    54358   67200      0    1.89e+00    0    1.32e+00
2007 09 15  1845    54358   67500      0    1.93e+00    0    1.35e+00
2007 09 15  1850    54358   67800      0    1.94e+00    0    1.37e+00
2007 09 15  1855    54358   68100      0    1.95e+00    0    1.36e+00
2007 09 15  1900    54358   68400      0    1.92e+00    0    1.35e+00
2007 09 15  1905    54358   68700      0    1.90e+00    0    1.33e+00
2007 09 15  1910    54358   69000      0    1.90e+00    0    1.32e+00
2007 09 15  1915    54358   69300      0    1.91e+00    0    1.34e+00
2007 09 15  1920    54358   69600      0    1.98e+00    0    1.37e+00
2007 09 15  1925    54358   69900      0    1.93e+00    0    1.33e+00
2007 09 15  1930    54358   70200      0    1.97e+00    0    1.36e+00
2007 09 15  1935    54358   70500      0    1.91e+00    0    1.34e+00
2007 09 15  1940    54358   70800      0    1.91e+00    0    1.32e+00
2007 09 15  1945    54358   71100      0    1.91e+00    0    1.34e+00
2007 09 15  1950    54358   71400      0    1.91e+00    0    1.34e+00
2007 09 15  1955    54358   71700      0    1.92e+00    0    1.34e+00
2007 09 15  2000    54358   72000      0    1.89e+00    0    1.33e+00
2007 09 15  2005    54358   72300      0    1.97e+00    0    1.38e+00
2007 09 15  2010    54358   72600      0    1.94e+00    0    1.36e+00
2007 09 15  2015    54358   72900      0    1.95e+00    0    1.37e+00
2007 09 15  2020    54358   73200      0    1.97e+00    0    1.39e+00
2007 09 15  2025    54358   73500      0    1.93e+00    0    1.35e+00
2007 09 15  2030    54358   73800      0    1.93e+00    0    1.34e+00
2007 09 15  2035    54358   74100      0    1.96e+00    0    1.37e+00
2007 09 15  2040    54358   74400      0    1.96e+00    0    1.38e+00
2007 09 15  2045    54358   74700      0    1.94e+00    0    1.36e+00
2007 09 15  2050    54358   75000      0    1.94e+00    0    1.36e+00
2007 09 15  2055    54358   75300      0    1.97e+00    0    1.38e+00
2007 09 15  2100    54358   75600      0    1.98e+00    0    1.37e+00
2007 09 15  2105    54358   75900      0    1.94e+00    0    1.35e+00
2007 09 15  2110    54358   76200      0    1.94e+00    0    1.36e+00
2007 09 15  2115    54358   76500      0    1.93e+00    0    1.35e+00
2007 09 15  2120    54358   76800      0    1.99e+00    0    1.37e+00
2007 09 15  2125    54358   77100      0    1.97e+00    0    1.38e+00
2007 09 15  2130    54358   77400      0    1.98e+00    0    1.39e+00
2007 09 15  2135    54358   77700      0    1.95e+00    0    1.35e+00
2007 09 15  2140    54358   78000      0    1.93e+00    0    1.35e+00
2007 09 15  2145    54358   78300      0    1.94e+00    0    1.36e+00
2007 09 15  2150    54358   78600      0    1.95e+00    0    1.37e+00
2007 09 15  2155    54358   78900      0    2.00e+00    0    1.41e+00
2007 09 15  2200    54358   79200      0    1.96e+00    0    1.38e+00
2007 09 15  2205    54358   79500      0    1.93e+00    0    1.35e+00
2007 09 15  2210    54358   79800      0    1.96e+00    0    1.35e+00
2007 09 15  2215    54358   80100      0    2.02e+00    0    1.41e+00
2007 09 15  2220    54358   80400      0    1.96e+00    0    1.38e+00
2007 09 15  2225    54358   80700      0    1.98e+00    0    1.39e+00
2007 09 15  2230    54358   81000      0    1.98e+00    0    1.38e+00
2007 09 15  2235    54358   81300      0    1.92e+00    0    1.34e+00
2007 09 15  2240    54358   81600      0    1.91e+00    0    1.33e+00
2007 09 15  2245    54358   81900      0    1.96e+00    0    1.38e+00
2007 09 15  2250    54358   82200      0    1.94e+00    0    1.37e+00
2007 09 15  2255    54358   82500      0    1.94e+00    0    1.36e+00
2007 09 15  2300    54358   82800      0    1.90e+00    0    1.32e+00
2007 09 15  2305    54358   83100      0    1.96e+00    0    1.38e+00
2007 09 15  2310    54358   83400      0    1.97e+00    0    1.38e+00
2007 09 15  2315    54358   83700      0    1.95e+00    0    1.37e+00
2007 09 15  2320    54358   84000      0    1.90e+00    0    1.34e+00
2007 09 15  2325    54358   84300      0    1.90e+00    0    1.32e+00
2007 09 15  2330    54358   84600      0    1.96e+00    0    1.38e+00
2007 09 15  2335    54358   84900      0    1.96e+00    0    1.37e+00
2007 09 15  2340    54358   85200      0    1.91e+00    0    1.33e+00
2007 09 15  2345    54358   85500      0    1.91e+00    0    1.34e+00
2007 09 15  2350    54358   85800      0    1.88e+00    0    1.32e+00
2007 09 15  2355    54358   86100      0    1.93e+00    0    1.36e+00
